Data from dark_USB4E013581_00016.txt Node
Date: Wed May 08 15:05:46 EDT 2019
User: dh1006
Spectrometer: USB4E01358
Autoset integration time: false
Trigger mode: 4
Integration Time (sec): 2.925000E-2
Scans to average: 1
Electric dark correction enabled: true
Nonlinearity correction enabled: false
Boxcar width: 0
Stray light correction enabled: false
XAxis mode: Wavelengths
Stop averaging: false
Number of Pixels in Spectrum: 3648
>>>>>Begin Spectral Data<<<<<
176.727	-54.98
176.966	-54.98
177.205	-54.98
177.444	-26.31
177.683	-22.21
177.922	39.23
178.161	4.41
178.4	8.51
178.638	16.7
178.877	31.03
179.116	-14.02
179.355	100.67
179.593	26.94
179.832	59.71
180.071	82.23
180.309	-20.16
180.548	67.9
180.786	-26.31
181.025	78.14
181.263	26.94
181.502	26.94
181.74	86.33
181.979	12.6
182.217	22.84
182.456	22.84
182.694	47.42
182.932	20.79
183.17	10.55
183.409	20.79
183.647	8.51
183.885	22.84
184.123	-20.16
184.361	-1.73
184.6	10.55
184.838	18.75
185.076	43.32
185.314	39.23
185.552	10.55
185.79	59.71
186.028	-3.78
186.266	-20.16
186.503	55.61
186.741	14.65
186.979	6.46
187.217	-9.92
187.455	51.51
187.693	33.08
187.93	-3.78
188.168	2.36
188.406	10.55
188.643	2.36
188.881	53.56
189.119	45.37
189.356	4.41
189.594	-20.16
189.831	10.55
190.069	-20.16
190.306	51.51
190.543	125.24
190.781	-38.6
191.018	24.89
191.256	-11.97
191.493	35.13
191.73	20.79
191.967	39.23
192.205	-1.73
192.442	4.41
192.679	22.84
192.916	18.75
193.153	-5.83
193.39	61.75
193.628	59.71
193.865	22.84
194.102	-5.83
194.339	69.95
194.576	6.46
194.813	-3.78
195.049	10.55
195.286	-11.97
195.523	6.46
195.76	12.6
195.997	-5.83
196.234	61.75
196.47	-67.27
196.707	-22.21
196.944	61.75
197.18	35.13
197.417	-18.12
197.654	-36.55
197.89	76.09
198.127	92.47
198.363	-42.69
198.6	98.62
198.836	61.75
199.073	51.51
199.309	-46.79
199.546	-30.4
199.782	8.51
200.018	67.9
200.255	31.03
200.491	92.47
200.727	31.03
200.963	-26.31
201.199	59.71
201.436	-54.98
201.672	61.75
201.908	20.79
202.144	8.51
202.38	61.75
202.616	10.55
202.852	47.42
203.088	-18.12
203.324	67.9
203.56	57.66
203.796	86.33
204.032	22.84
204.268	39.23
204.503	33.08
204.739	14.65
204.975	-26.31
205.211	-50.88
205.446	-5.83
205.682	76.09
205.918	45.37
206.153	55.61
206.389	-71.36
206.625	-5.83
206.86	43.32
207.096	-3.78
207.331	-54.98
207.567	-7.88
207.802	4.41
208.037	-44.74
208.273	35.13
208.508	14.65
208.744	22.84
208.979	2.36
209.214	12.6
209.449	22.84
209.685	-18.12
209.92	22.84
210.155	-48.84
210.39	-22.21
210.625	2.36
210.86	28.99
211.095	39.23
211.33	22.84
211.565	-9.92
211.8	76.09
212.035	51.51
212.27	-22.21
212.505	6.46
212.74	39.23
212.975	43.32
213.21	10.55
213.444	-36.55
213.679	69.95
213.914	8.51
214.149	28.99
214.383	-30.4
214.618	-3.78
214.853	2.36
215.087	63.8
215.322	8.51
215.556	10.55
215.791	-69.32
216.025	-5.83
216.26	80.19
216.494	-5.83
216.729	-63.17
216.963	59.71
217.197	45.37
217.432	51.51
217.666	-38.6
217.9	18.75
218.135	6.46
218.369	51.51
218.603	26.94
218.837	4.41
219.071	37.18
219.306	67.9
219.54	28.99
219.774	22.84
220.008	35.13
220.242	22.84
220.476	14.65
220.71	-14.02
220.944	53.56
221.178	59.71
221.411	45.37
221.645	-9.92
221.879	-63.17
222.113	51.51
222.347	26.94
222.58	84.28
222.814	35.13
223.048	59.71
223.281	-14.02
223.515	80.19
223.749	-32.45
223.982	71.99
224.216	49.47
224.449	43.32
224.683	-18.12
224.916	45.37
225.15	-26.31
225.383	-28.36
225.617	69.95
225.85	4.41
226.083	14.65
226.317	-20.16
226.55	-26.31
226.783	10.55
227.016	-22.21
227.25	26.94
227.483	-18.12
227.716	61.75
227.949	49.47
228.182	-30.4
228.415	-3.78
228.648	119.1
228.881	35.13
229.114	76.09
229.347	59.71
229.58	-52.93
229.813	35.13
230.046	78.14
230.279	-7.88
230.512	33.08
230.745	71.99
230.977	35.13
231.21	67.9
231.443	-52.93
231.675	18.75
231.908	-71.36
232.141	59.71
232.373	49.47
232.606	20.79
232.839	4.41
233.071	-50.88
233.304	2.36
233.536	-18.12
233.769	26.94
234.001	35.13
234.233	20.79
234.466	26.94
234.698	96.57
234.93	55.61
235.163	0.32
235.395	26.94
235.627	26.94
235.86	-14.02
236.092	8.51
236.324	74.04
236.556	45.37
236.788	4.41
237.02	-18.12
237.252	-30.4
237.484	78.14
237.716	-30.4
237.948	71.99
238.18	51.51
238.412	59.71
238.644	123.19
238.876	59.71
239.108	-36.55
239.34	2.36
239.571	-93.89
239.803	61.75
240.035	0.32
240.267	84.28
240.498	-14.02
240.73	47.42
240.962	74.04
241.193	6.46
241.425	55.61
241.656	26.94
241.888	12.6
242.119	-30.4
242.351	57.66
242.582	63.8
242.814	-18.12
243.045	96.57
243.277	35.13
243.508	-34.5
243.739	-9.92
243.971	-14.02
244.202	76.09
244.433	26.94
244.664	-59.08
244.896	35.13
245.127	6.46
245.358	6.46
245.589	-14.02
245.82	-18.12
246.051	-18.12
246.282	47.42
246.513	2.36
246.744	4.41
246.975	110.91
247.206	80.19
247.437	4.41
247.668	35.13
247.899	35.13
248.129	53.56
248.36	-32.45
248.591	-34.5
248.822	43.32
249.052	117.05
249.283	96.57
249.514	10.55
249.744	4.41
249.975	57.66
250.206	-9.92
250.436	47.42
250.667	-5.83
250.897	6.46
251.128	112.95
251.358	43.32
251.589	-38.6
251.819	55.61
252.049	35.13
252.28	35.13
252.51	-5.83
252.74	45.37
252.971	4.41
253.201	28.99
253.431	47.42
253.661	67.9
253.891	18.75
254.121	-38.6
254.352	4.41
254.582	47.42
254.812	49.47
255.042	43.32
255.272	14.65
255.502	28.99
255.732	8.51
255.962	28.99
256.192	-77.51
256.421	-5.83
256.651	18.75
256.881	33.08
257.111	10.55
257.341	6.46
257.57	18.75
257.8	6.46
258.03	14.65
258.259	39.23
258.489	-1.73
258.719	35.13
258.948	55.61
259.178	16.7
259.407	18.75
259.637	-38.6
259.866	39.23
260.096	-89.8
260.325	-22.21
260.555	57.66
260.784	12.6
261.013	-52.93
261.243	39.23
261.472	-11.97
261.701	35.13
261.931	28.99
262.16	43.32
262.389	-34.5
262.618	2.36
262.847	18.75
263.076	55.61
263.305	108.86
263.535	-44.74
263.764	10.55
263.993	-9.92
264.222	43.32
264.451	51.51
264.679	-11.97
264.908	2.36
265.137	-46.79
265.366	14.65
265.595	57.66
265.824	-9.92
266.053	18.75
266.281	71.99
266.51	-3.78
266.739	76.09
266.967	71.99
267.196	-34.5
267.425	69.95
267.653	-22.21
267.882	-34.5
268.11	2.36
268.339	61.75
268.567	-63.17
268.796	67.9
269.024	-5.83
269.253	2.36
269.481	22.84
269.709	-14.02
269.938	-30.4
270.166	6.46
270.394	37.18
270.623	26.94
270.851	10.55
271.079	26.94
271.307	49.47
271.535	4.41
271.764	-28.36
271.992	63.8
272.22	16.7
272.448	43.32
272.676	-9.92
272.904	47.42
273.132	39.23
273.36	-67.27
273.588	-14.02
273.816	59.71
274.043	31.03
274.271	53.56
274.499	43.32
274.727	20.79
274.955	31.03
275.182	37.18
275.41	51.51
275.638	6.46
275.866	-16.07
276.093	43.32
276.321	14.65
276.548	-22.21
276.776	16.7
277.003	67.9
277.231	14.65
277.458	26.94
277.686	-3.78
277.913	61.75
278.141	104.76
278.368	-11.97
278.595	45.37
278.823	-3.78
279.05	133.43
279.277	14.65
279.505	4.41
279.732	49.47
279.959	4.41
280.186	-14.02
280.413	-11.97
280.641	92.47
280.868	84.28
281.095	57.66
281.322	39.23
281.549	6.46
281.776	69.95
282.003	14.65
282.23	10.55
282.457	53.56
282.683	59.71
282.91	10.55
283.137	12.6
283.364	-16.07
283.591	-3.78
283.818	31.03
284.044	-22.21
284.271	51.51
284.498	8.51
284.724	-54.98
284.951	10.55
285.178	18.75
285.404	0.32
285.631	67.9
285.857	2.36
286.084	94.52
286.31	-5.83
286.537	35.13
286.763	-20.16
286.99	18.75
287.216	55.61
287.442	22.84
287.669	10.55
287.895	-14.02
288.121	35.13
288.347	-1.73
288.574	-3.78
288.8	76.09
289.026	-20.16
289.252	26.94
289.478	18.75
289.704	37.18
289.931	22.84
290.157	-18.12
290.383	65.85
290.609	67.9
290.835	-44.74
291.06	43.32
291.286	-44.74
291.512	47.42
291.738	26.94
291.964	-5.83
292.19	53.56
292.416	108.86
292.641	-16.07
292.867	-3.78
293.093	43.32
293.319	6.46
293.544	121.15
293.77	-24.26
293.995	55.61
294.221	-20.16
294.447	6.46
294.672	10.55
294.898	10.55
295.123	-14.02
295.349	0.32
295.574	-18.12
295.799	-30.4
296.025	-38.6
296.25	-14.02
296.476	18.75
296.701	2.36
296.926	39.23
297.151	2.36
297.377	92.47
297.602	-22.21
297.827	4.41
298.052	-22.21
298.277	-38.6
298.502	10.55
298.727	-16.07
298.953	-18.12
299.178	20.79
299.403	94.52
299.628	41.27
299.852	63.8
300.077	-22.21
300.302	-48.84
300.527	-44.74
300.752	22.84
300.977	35.13
301.202	-38.6
301.426	26.94
301.651	10.55
301.876	12.6
302.101	37.18
302.325	35.13
302.55	2.36
302.775	51.51
302.999	67.9
303.224	49.47
303.448	4.41
303.673	-26.31
303.897	45.37
304.122	26.94
304.346	-38.6
304.571	4.41
304.795	14.65
305.019	24.89
305.244	10.55
305.468	45.37
305.692	39.23
305.917	-1.73
306.141	-1.73
306.365	18.75
306.589	96.57
306.813	35.13
307.038	26.94
307.262	63.8
307.486	59.71
307.71	51.51
307.934	2.36
308.158	26.94
308.382	-30.4
308.606	55.61
308.83	-5.83
309.054	-5.83
309.278	35.13
309.502	28.99
309.725	22.84
309.949	47.42
310.173	4.41
310.397	59.71
310.62	35.13
310.844	16.7
311.068	63.8
311.292	-46.79
311.515	112.95
311.739	0.32
311.962	35.13
312.186	18.75
312.41	31.03
312.633	-46.79
312.857	71.99
313.08	10.55
313.303	63.8
313.527	51.51
313.75	-3.78
313.974	-69.32
314.197	14.65
314.42	43.32
314.644	28.99
314.867	69.95
315.09	2.36
315.313	4.41
315.536	76.09
315.76	18.75
315.983	69.95
316.206	61.75
316.429	22.84
316.652	10.55
316.875	-61.12
317.098	8.51
317.321	76.09
317.544	-11.97
317.767	43.32
317.99	-22.21
318.213	4.41
318.436	0.32
318.658	76.09
318.881	20.79
319.104	-16.07
319.327	-18.12
319.55	10.55
319.772	59.71
319.995	57.66
320.218	8.51
320.44	2.36
320.663	20.79
320.885	45.37
321.108	108.86
321.331	-20.16
321.553	-9.92
321.776	47.42
321.998	-24.26
322.22	18.75
322.443	39.23
322.665	43.32
322.888	37.18
323.11	43.32
323.332	18.75
323.555	18.75
323.777	10.55
323.999	-1.73
324.221	4.41
324.443	4.41
324.666	47.42
324.888	49.47
325.11	61.75
325.332	61.75
325.554	0.32
325.776	18.75
325.998	4.41
326.22	10.55
326.442	69.95
326.664	-1.73
326.886	26.94
327.108	-36.55
327.33	43.32
327.551	-5.83
327.773	35.13
327.995	31.03
328.217	-18.12
328.439	53.56
328.66	14.65
328.882	-3.78
329.104	45.37
329.325	51.51
329.547	80.19
329.769	-5.83
329.99	74.04
330.212	26.94
330.433	84.28
330.655	61.75
330.876	-30.4
331.098	-40.64
331.319	31.03
331.54	43.32
331.762	-24.26
331.983	-36.55
332.204	10.55
332.426	69.95
332.647	2.36
332.868	-11.97
333.089	-3.78
333.311	41.27
333.532	-1.73
333.753	8.51
333.974	-9.92
334.195	39.23
334.416	18.75
334.637	43.32
334.858	78.14
335.079	-22.21
335.3	12.6
335.521	-14.02
335.742	45.37
335.963	35.13
336.184	-18.12
336.405	4.41
336.626	10.55
336.846	37.18
337.067	16.7
337.288	35.13
337.509	43.32
337.729	10.55
337.95	18.75
338.171	31.03
338.391	94.52
338.612	69.95
338.833	69.95
339.053	39.23
339.274	-11.97
339.494	18.75
339.715	69.95
339.935	67.9
340.156	-14.02
340.376	28.99
340.596	53.56
340.817	37.18
341.037	18.75
341.257	2.36
341.478	24.89
341.698	35.13
341.918	63.8
342.138	14.65
342.359	6.46
342.579	26.94
342.799	10.55
343.019	76.09
343.239	-20.16
343.459	-38.6
343.679	90.43
343.899	-40.64
344.119	22.84
344.339	-30.4
344.559	61.75
344.779	-52.93
344.999	14.65
345.219	41.27
345.439	43.32
345.658	4.41
345.878	6.46
346.098	108.86
346.318	16.7
346.537	-30.4
346.757	26.94
346.977	33.08
347.196	28.99
347.416	-9.92
347.636	26.94
347.855	53.56
348.075	53.56
348.294	71.99
348.514	-22.21
348.733	92.47
348.953	-59.08
349.172	31.03
349.392	106.81
349.611	41.27
349.83	14.65
350.05	28.99
350.269	-1.73
350.488	-14.02
350.707	-11.97
350.927	-1.73
351.146	47.42
351.365	43.32
351.584	-20.16
351.803	53.56
352.023	-36.55
352.242	59.71
352.461	35.13
352.68	39.23
352.899	10.55
353.118	26.94
353.337	76.09
353.556	14.65
353.775	49.47
353.993	-18.12
354.212	84.28
354.431	24.89
354.65	28.99
354.869	-11.97
355.088	-5.83
355.306	51.51
355.525	39.23
355.744	-22.21
355.962	28.99
356.181	43.32
356.4	-46.79
356.618	12.6
356.837	-1.73
357.055	-22.21
357.274	39.23
357.492	-24.26
357.711	-61.12
357.929	-24.26
358.148	26.94
358.366	-14.02
358.585	6.46
358.803	100.67
359.021	18.75
359.24	51.51
359.458	10.55
359.676	6.46
359.894	-30.4
360.113	31.03
360.331	10.55
360.549	-44.74
360.767	18.75
360.985	18.75
361.203	47.42
361.421	-30.4
361.639	88.38
361.857	-11.97
362.075	84.28
362.293	20.79
362.511	-26.31
362.729	10.55
362.947	98.62
363.165	-22.21
363.383	-61.12
363.601	2.36
363.819	10.55
364.036	43.32
364.254	-5.83
364.472	74.04
364.689	-9.92
364.907	-30.4
365.125	-5.83
365.342	20.79
365.56	35.13
365.778	12.6
365.995	-5.83
366.213	10.55
366.43	-34.5
366.648	-38.6
366.865	51.51
367.083	26.94
367.3	-14.02
367.517	76.09
367.735	2.36
367.952	-5.83
368.17	92.47
368.387	-14.02
368.604	84.28
368.821	-50.88
369.039	16.7
369.256	-5.83
369.473	84.28
369.69	20.79
369.907	51.51
370.124	43.32
370.341	39.23
370.558	35.13
370.776	96.57
370.993	-75.46
371.21	-5.83
371.426	-5.83
371.643	16.7
371.86	55.61
372.077	-11.97
372.294	43.32
372.511	6.46
372.728	-34.5
372.945	39.23
373.161	57.66
373.378	41.27
373.595	22.84
373.811	33.08
374.028	2.36
374.245	-9.92
374.461	-61.12
374.678	39.23
374.895	-14.02
375.111	2.36
375.328	-26.31
375.544	-5.83
375.761	26.94
375.977	31.03
376.194	-52.93
376.41	84.28
376.626	47.42
376.843	65.85
377.059	-14.02
377.275	22.84
377.492	57.66
377.708	-5.83
377.924	47.42
378.14	-38.6
378.357	12.6
378.573	10.55
378.789	22.84
379.005	20.79
379.221	65.85
379.437	57.66
379.653	-9.92
379.869	53.56
380.085	20.79
380.301	-22.21
380.517	-32.45
380.733	-30.4
380.949	45.37
381.165	22.84
381.381	-67.27
381.597	18.75
381.813	55.61
382.028	26.94
382.244	-14.02
382.46	-26.31
382.676	49.47
382.891	-3.78
383.107	-20.16
383.323	22.84
383.538	-11.97
383.754	2.36
383.969	-36.55
384.185	-5.83
384.4	-18.12
384.616	35.13
384.831	-22.21
385.047	37.18
385.262	10.55
385.478	4.41
385.693	35.13
385.909	-24.26
386.124	39.23
386.339	14.65
386.554	6.46
386.77	-9.92
386.985	-18.12
387.2	-1.73
387.415	-1.73
387.631	47.42
387.846	-5.83
388.061	2.36
388.276	-50.88
388.491	-34.5
388.706	22.84
388.921	14.65
389.136	6.46
389.351	-50.88
389.566	26.94
389.781	26.94
389.996	-28.36
390.211	2.36
390.426	37.18
390.641	59.71
390.855	-28.36
391.07	69.95
391.285	24.89
391.5	45.37
391.714	-46.79
391.929	-71.36
392.144	4.41
392.358	22.84
392.573	18.75
392.788	28.99
393.002	18.75
393.217	-1.73
393.431	59.71
393.646	-46.79
393.86	43.32
394.075	14.65
394.289	12.6
394.504	47.42
394.718	-26.31
394.933	69.95
395.147	31.03
395.361	-63.17
395.576	4.41
395.79	-14.02
396.004	-1.73
396.218	117.05
396.432	65.85
396.647	4.41
396.861	104.76
397.075	51.51
397.289	6.46
397.503	-30.4
397.717	26.94
397.931	14.65
398.145	-26.31
398.359	2.36
398.573	35.13
398.787	22.84
399.001	37.18
399.215	14.65
399.429	35.13
399.643	-36.55
399.857	2.36
400.07	59.71
400.284	28.99
400.498	0.32
400.712	6.46
400.925	37.18
401.139	43.32
401.353	53.56
401.566	53.56
401.78	10.55
401.994	18.75
402.207	69.95
402.421	18.75
402.634	-3.78
402.848	61.75
403.061	45.37
403.275	-14.02
403.488	67.9
403.702	10.55
403.915	-30.4
404.128	35.13
404.342	-9.92
404.555	12.6
404.768	18.75
404.982	-28.36
405.195	51.51
405.408	39.23
405.621	10.55
405.835	59.71
406.048	51.51
406.261	-46.79
406.474	-46.79
406.687	6.46
406.9	10.55
407.113	-26.31
407.326	37.18
407.539	-54.98
407.752	-18.12
407.965	8.51
408.178	-36.55
408.391	-71.36
408.604	-22.21
408.817	4.41
409.029	-26.31
409.242	51.51
409.455	14.65
409.668	67.9
409.881	-22.21
410.093	-26.31
410.306	59.71
410.519	10.55
410.731	57.66
410.944	10.55
411.157	-42.69
411.369	14.65
411.582	18.75
411.794	-14.02
412.007	59.71
412.219	18.75
412.432	10.55
412.644	-32.45
412.857	43.32
413.069	2.36
413.281	39.23
413.494	10.55
413.706	18.75
413.918	-38.6
414.131	100.67
414.343	-11.97
414.555	10.55
414.767	-7.88
414.979	-36.55
415.192	90.43
415.404	10.55
415.616	14.65
415.828	4.41
416.04	59.71
416.252	80.19
416.464	-9.92
416.676	-20.16
416.888	6.46
417.1	-30.4
417.312	-48.84
417.524	18.75
417.736	35.13
417.948	45.37
418.159	86.33
418.371	-30.4
418.583	4.41
418.795	-5.83
419.007	12.6
419.218	94.52
419.43	12.6
419.642	-11.97
419.853	-34.5
420.065	-7.88
420.276	-1.73
420.488	18.75
420.7	-67.27
420.911	-20.16
421.123	67.9
421.334	-5.83
421.546	-83.65
421.757	2.36
421.969	67.9
422.18	76.09
422.391	39.23
422.603	-34.5
422.814	33.08
423.025	55.61
423.237	14.65
423.448	43.32
423.659	4.41
423.87	14.65
424.082	-20.16
424.293	80.19
424.504	80.19
424.715	-38.6
424.926	-65.22
425.137	43.32
425.348	12.6
425.559	-77.51
425.77	20.79
425.981	20.79
426.192	-38.6
426.403	-20.16
426.614	26.94
426.825	10.55
427.036	2.36
427.247	39.23
427.458	20.79
427.668	-20.16
427.879	10.55
428.09	51.51
428.301	31.03
428.511	51.51
428.722	6.46
428.933	-11.97
429.143	41.27
429.354	-28.36
429.565	67.9
429.775	18.75
429.986	-50.88
430.196	4.41
430.407	-14.02
430.617	39.23
430.828	-20.16
431.038	18.75
431.249	53.56
431.459	47.42
431.669	20.79
431.88	-26.31
432.09	-28.36
432.3	51.51
432.511	47.42
432.721	35.13
432.931	10.55
433.141	2.36
433.351	2.36
433.562	55.61
433.772	76.09
433.982	43.32
434.192	2.36
434.402	88.38
434.612	76.09
434.822	18.75
435.032	-5.83
435.242	47.42
435.452	-14.02
435.662	-1.73
435.872	-14.02
436.082	18.75
436.292	-54.98
436.502	24.89
436.711	-7.88
436.921	12.6
437.131	26.94
437.341	26.94
437.551	43.32
437.76	43.32
437.97	0.32
438.18	-30.4
438.389	-24.26
438.599	2.36
438.808	43.32
439.018	76.09
439.228	78.14
439.437	76.09
439.647	-36.55
439.856	53.56
440.066	31.03
440.275	28.99
440.484	53.56
440.694	10.55
440.903	61.75
441.113	-5.83
441.322	-3.78
441.531	8.51
441.741	76.09
441.95	43.32
442.159	-22.21
442.368	26.94
442.577	-46.79
442.787	53.56
442.996	-22.21
443.205	26.94
443.414	84.28
443.623	-77.51
443.832	-42.69
444.041	76.09
444.25	-40.64
444.459	-5.83
444.668	49.47
444.877	2.36
445.086	26.94
445.295	84.28
445.504	-32.45
445.713	-5.83
445.922	37.18
446.13	47.42
446.339	4.41
446.548	26.94
446.757	14.65
446.965	12.6
447.174	-50.88
447.383	108.86
447.591	-30.4
447.8	-18.12
448.009	-48.84
448.217	92.47
448.426	-5.83
448.634	37.18
448.843	4.41
449.051	43.32
449.26	65.85
449.468	26.94
449.677	28.99
449.885	47.42
450.093	-11.97
450.302	-61.12
450.51	92.47
450.719	-18.12
450.927	-14.02
451.135	100.67
451.343	-22.21
451.552	-20.16
451.76	-26.31
451.968	-3.78
452.176	-5.83
452.384	57.66
452.592	20.79
452.8	4.41
453.009	43.32
453.217	86.33
453.425	43.32
453.633	6.46
453.841	-7.88
454.049	51.51
454.257	-9.92
454.464	20.79
454.672	4.41
454.88	-46.79
455.088	-18.12
455.296	-9.92
455.504	-85.7
455.711	35.13
455.919	22.84
456.127	18.75
456.335	-18.12
456.542	53.56
456.75	-5.83
456.958	71.99
457.165	16.7
457.373	-20.16
457.581	-5.83
457.788	-26.31
457.996	10.55
458.203	28.99
458.411	-9.92
458.618	35.13
458.826	20.79
459.033	6.46
459.24	-22.21
459.448	22.84
459.655	37.18
459.863	43.32
460.07	41.27
460.277	-42.69
460.484	26.94
460.692	47.42
460.899	2.36
461.106	31.03
461.313	65.85
461.52	-20.16
461.728	-46.79
461.935	35.13
462.142	35.13
462.349	-65.22
462.556	-3.78
462.763	20.79
462.97	22.84
463.177	2.36
463.384	51.51
463.591	18.75
463.798	-1.73
464.005	-34.5
464.212	31.03
464.418	125.24
464.625	-11.97
464.832	22.84
465.039	-63.17
465.246	-14.02
465.452	2.36
465.659	14.65
465.866	-69.32
466.072	43.32
466.279	35.13
466.486	12.6
466.692	39.23
466.899	76.09
