Data from dark_USB4E013581_00018.txt Node
Date: Wed May 08 15:05:46 EDT 2019
User: dh1006
Spectrometer: USB4E01358
Autoset integration time: false
Trigger mode: 4
Integration Time (sec): 2.925000E-2
Scans to average: 1
Electric dark correction enabled: true
Nonlinearity correction enabled: false
Boxcar width: 0
Stray light correction enabled: false
XAxis mode: Wavelengths
Stop averaging: false
Number of Pixels in Spectrum: 3648
>>>>>Begin Spectral Data<<<<<
176.727	-95.31
176.966	-95.31
177.205	-95.31
177.444	-56.4
177.683	-15.44
177.922	80.82
178.161	41.9
178.4	41.9
178.638	58.29
178.877	11.19
179.116	9.14
179.355	89.01
179.593	25.52
179.832	82.86
180.071	76.72
180.309	56.24
180.548	23.47
180.786	56.24
181.025	13.23
181.263	66.48
181.502	31.66
181.74	25.52
181.979	56.24
182.217	15.28
182.456	15.28
182.694	177.07
182.932	78.77
183.17	-37.97
183.409	37.81
183.647	-11.34
183.885	0.95
184.123	37.81
184.361	50.1
184.6	33.71
184.838	95.15
185.076	95.15
185.314	62.38
185.552	-21.58
185.79	-33.87
186.028	-19.53
186.266	23.47
186.503	2.99
186.741	48.05
186.979	25.52
187.217	50.1
187.455	72.62
187.693	-9.29
187.93	58.29
188.168	66.48
188.406	78.77
188.643	15.28
188.881	54.19
189.119	70.58
189.356	89.01
189.594	-15.44
189.831	95.15
190.069	80.82
190.306	-17.49
190.543	62.38
190.781	27.57
191.018	29.62
191.256	99.25
191.493	37.81
191.73	-48.21
191.967	25.52
192.205	70.58
192.442	-19.53
192.679	70.58
192.916	46
193.153	13.23
193.39	15.28
193.628	86.96
193.865	46
194.102	64.43
194.339	-11.34
194.576	5.04
194.813	78.77
195.049	9.14
195.286	17.33
195.523	-3.15
195.76	15.28
195.997	56.24
196.234	46
196.47	-33.87
196.707	78.77
196.944	70.58
197.18	5.04
197.417	-3.15
197.654	-11.34
197.89	0.95
198.127	25.52
198.363	5.04
198.6	91.06
198.836	-7.25
199.073	31.66
199.309	115.63
199.546	74.67
199.782	25.52
200.018	-23.63
200.255	54.19
200.491	86.96
200.727	21.42
200.963	58.29
201.199	41.9
201.436	17.33
201.672	37.81
201.908	95.15
202.144	-52.3
202.38	43.95
202.616	39.86
202.852	37.81
203.088	17.33
203.324	84.91
203.56	23.47
203.796	78.77
204.032	66.48
204.268	50.1
204.503	-1.1
204.739	-35.92
204.975	29.62
205.211	5.04
205.446	111.54
205.682	70.58
205.918	89.01
206.153	23.47
206.389	62.38
206.625	7.09
206.86	52.14
207.096	35.76
207.331	-17.49
207.567	54.19
207.802	37.81
208.037	66.48
208.273	50.1
208.508	-40.01
208.744	15.28
208.979	-66.64
209.214	33.71
209.449	41.9
209.685	-1.1
209.92	41.9
210.155	39.86
210.39	7.09
210.625	23.47
210.86	-35.92
211.095	13.23
211.33	72.62
211.565	19.38
211.8	138.16
212.035	25.52
212.27	-56.4
212.505	0.95
212.74	-66.64
212.975	-1.1
213.21	54.19
213.444	23.47
213.679	64.43
213.914	37.81
214.149	5.04
214.383	25.52
214.618	41.9
214.853	54.19
215.087	115.63
215.322	46
215.556	5.04
215.791	31.66
216.025	-11.34
216.26	72.62
216.494	70.58
216.729	64.43
216.963	66.48
217.197	31.66
217.432	39.86
217.666	76.72
217.9	99.25
218.135	-40.01
218.369	129.97
218.603	-1.1
218.837	41.9
219.071	-11.34
219.306	-23.63
219.54	50.1
219.774	144.3
220.008	95.15
220.242	21.42
220.476	-5.2
220.71	54.19
220.944	78.77
221.178	7.09
221.411	25.52
221.645	7.09
221.879	17.33
222.113	5.04
222.347	23.47
222.58	-7.25
222.814	33.71
223.048	21.42
223.281	21.42
223.515	33.71
223.749	39.86
223.982	21.42
224.216	21.42
224.449	107.44
224.683	-35.92
224.916	54.19
225.15	54.19
225.383	95.15
225.617	62.38
225.85	35.76
226.083	56.24
226.317	37.81
226.55	-68.69
226.783	56.24
227.016	21.42
227.25	23.47
227.483	31.66
227.716	54.19
227.949	-25.68
228.182	-70.73
228.415	37.81
228.648	50.1
228.881	-7.25
229.114	78.77
229.347	113.58
229.58	-9.29
229.813	25.52
230.046	-19.53
230.279	21.42
230.512	-40.01
230.745	46
230.977	37.81
231.21	136.11
231.443	37.81
231.675	15.28
231.908	17.33
232.141	-64.59
232.373	21.42
232.606	29.62
232.839	25.52
233.071	56.24
233.304	31.66
233.536	31.66
233.769	86.96
234.001	37.81
234.233	78.77
234.466	37.81
234.698	13.23
234.93	31.66
235.163	29.62
235.395	-15.44
235.627	70.58
235.86	82.86
236.092	50.1
236.324	62.38
236.556	78.77
236.788	9.14
237.02	56.24
237.252	21.42
237.484	29.62
237.716	25.52
237.948	39.86
238.18	58.29
238.412	64.43
238.644	62.38
238.876	70.58
239.108	13.23
239.34	17.33
239.571	43.95
239.803	5.04
240.035	41.9
240.267	39.86
240.498	17.33
240.73	31.66
240.962	7.09
241.193	54.19
241.425	25.52
241.656	74.67
241.888	37.81
242.119	-11.34
242.351	19.38
242.582	97.2
242.814	-17.49
243.045	31.66
243.277	-60.49
243.508	29.62
243.739	15.28
243.971	29.62
244.202	-23.63
244.433	39.86
244.664	-23.63
244.896	-25.68
245.127	2.99
245.358	64.43
245.589	86.96
245.82	50.1
246.051	68.53
246.282	82.86
246.513	89.01
246.744	29.62
246.975	-15.44
247.206	54.19
247.437	93.1
247.668	72.62
247.899	23.47
248.129	52.14
248.36	50.1
248.591	19.38
248.822	-7.25
249.052	41.9
249.283	41.9
249.514	21.42
249.744	37.81
249.975	56.24
250.206	-9.29
250.436	29.62
250.667	86.96
250.897	21.42
251.128	17.33
251.358	13.23
251.589	-23.63
251.819	5.04
252.049	46
252.28	95.15
252.51	31.66
252.74	13.23
252.971	-1.1
253.201	50.1
253.431	33.71
253.661	89.01
253.891	-1.1
254.121	-68.69
254.352	78.77
254.582	5.04
254.812	33.71
255.042	41.9
255.272	46
255.502	17.33
255.732	11.19
255.962	35.76
256.192	-17.49
256.421	48.05
256.651	13.23
256.881	72.62
257.111	21.42
257.341	-19.53
257.57	17.33
257.8	29.62
258.03	48.05
258.259	62.38
258.489	56.24
258.719	56.24
258.948	27.57
259.178	64.43
259.407	50.1
259.637	66.48
259.866	-52.3
260.096	-25.68
260.325	46
260.555	89.01
260.784	31.66
261.013	37.81
261.243	54.19
261.472	33.71
261.701	29.62
261.931	31.66
262.16	19.38
262.389	80.82
262.618	-27.73
262.847	21.42
263.076	-35.92
263.305	46
263.535	7.09
263.764	80.82
263.993	-15.44
264.222	31.66
264.451	58.29
264.679	-60.49
264.908	23.47
265.137	-9.29
265.366	74.67
265.595	107.44
265.824	9.14
266.053	11.19
266.281	29.62
266.51	5.04
266.739	91.06
266.967	27.57
267.196	76.72
267.425	25.52
267.653	-60.49
267.882	-60.49
268.11	15.28
268.339	80.82
268.567	-11.34
268.796	46
269.024	48.05
269.253	35.76
269.481	37.81
269.709	2.99
269.938	50.1
270.166	-15.44
270.394	-9.29
270.623	-21.58
270.851	66.48
271.079	33.71
271.307	46
271.535	-7.25
271.764	-15.44
271.992	46
272.22	-15.44
272.448	78.77
272.676	0.95
272.904	13.23
273.132	-11.34
273.36	15.28
273.588	78.77
273.816	54.19
274.043	0.95
274.271	37.81
274.499	-15.44
274.727	91.06
274.955	13.23
275.182	74.67
275.41	66.48
275.638	-17.49
275.866	13.23
276.093	72.62
276.321	89.01
276.548	17.33
276.776	56.24
277.003	21.42
277.231	66.48
277.458	48.05
277.686	5.04
277.913	64.43
278.141	-27.73
278.368	13.23
278.595	-3.15
278.823	29.62
279.05	136.11
279.277	58.29
279.505	29.62
279.732	13.23
279.959	-35.92
280.186	-7.25
280.413	39.86
280.641	-27.73
280.868	41.9
281.095	48.05
281.322	5.04
281.549	9.14
281.776	70.58
282.003	-17.49
282.23	68.53
282.457	148.4
282.683	-33.87
282.91	13.23
283.137	-31.82
283.364	97.2
283.591	31.66
283.818	13.23
284.044	29.62
284.271	41.9
284.498	58.29
284.724	48.05
284.951	29.62
285.178	-44.11
285.404	-9.29
285.631	-25.68
285.857	103.34
286.084	29.62
286.31	64.43
286.537	-3.15
286.763	39.86
286.99	9.14
287.216	23.47
287.442	50.1
287.669	-1.1
287.895	7.09
288.121	-17.49
288.347	-33.87
288.574	7.09
288.8	35.76
289.026	9.14
289.252	31.66
289.478	5.04
289.704	33.71
289.931	-23.63
290.157	113.58
290.383	29.62
290.609	33.71
290.835	89.01
291.06	17.33
291.286	27.57
291.512	43.95
291.738	58.29
291.964	60.34
292.19	-29.77
292.416	31.66
292.641	-15.44
292.867	15.28
293.093	29.62
293.319	-3.15
293.544	-76.88
293.77	0.95
293.995	33.71
294.221	-11.34
294.447	21.42
294.672	80.82
294.898	46
295.123	5.04
295.349	58.29
295.574	48.05
295.799	17.33
296.025	66.48
296.25	9.14
296.476	11.19
296.701	78.77
296.926	13.23
297.151	-3.15
297.377	62.38
297.602	-3.15
297.827	37.81
298.052	21.42
298.277	25.52
298.502	0.95
298.727	9.14
298.953	-3.15
299.178	13.23
299.403	0.95
299.628	56.24
299.852	-1.1
300.077	-3.15
300.302	-1.1
300.527	-44.11
300.752	-5.2
300.977	129.97
301.202	-31.82
301.426	97.2
301.651	17.33
301.876	29.62
302.101	-9.29
302.325	80.82
302.55	13.23
302.775	39.86
302.999	-19.53
303.224	64.43
303.448	46
303.673	78.77
303.897	21.42
304.122	7.09
304.346	5.04
304.571	13.23
304.795	25.52
305.019	31.66
305.244	-3.15
305.468	70.58
305.692	-40.01
305.917	54.19
306.141	31.66
306.365	23.47
306.589	-1.1
306.813	58.29
307.038	21.42
307.262	-5.2
307.486	-17.49
307.71	33.71
307.934	17.33
308.158	39.86
308.382	41.9
308.606	70.58
308.83	-5.2
309.054	52.14
309.278	0.95
309.502	33.71
309.725	48.05
309.949	46
310.173	29.62
310.397	-7.25
310.62	-97.36
310.844	37.81
311.068	70.58
311.292	33.71
311.515	54.19
311.739	25.52
311.962	33.71
312.186	31.66
312.41	41.9
312.633	91.06
312.857	15.28
313.08	56.24
313.303	-17.49
313.527	48.05
313.75	62.38
313.974	29.62
314.197	54.19
314.42	-3.15
314.644	48.05
314.867	97.2
315.09	33.71
315.313	86.96
315.536	13.23
315.76	5.04
315.983	64.43
316.206	68.53
316.429	17.33
316.652	101.3
316.875	-3.15
317.098	50.1
317.321	35.76
317.544	37.81
317.767	5.04
317.99	37.81
318.213	-3.15
318.436	56.24
318.658	11.19
318.881	58.29
319.104	37.81
319.327	-15.44
319.55	0.95
319.772	17.33
319.995	13.23
320.218	29.62
320.44	19.38
320.663	15.28
320.885	37.81
321.108	78.77
321.331	-9.29
321.553	82.86
321.776	-3.15
321.998	21.42
322.22	76.72
322.443	78.77
322.665	27.57
322.888	105.39
323.11	7.09
323.332	-5.2
323.555	13.23
323.777	54.19
323.999	-1.1
324.221	13.23
324.443	-50.25
324.666	46
324.888	46
325.11	54.19
325.332	7.09
325.554	50.1
325.776	33.71
325.998	89.01
326.22	-11.34
326.442	62.38
326.664	39.86
326.886	52.14
327.108	27.57
327.33	-7.25
327.551	9.14
327.773	62.38
327.995	50.1
328.217	-68.69
328.439	74.67
328.66	64.43
328.882	-27.73
329.104	70.58
329.325	23.47
329.547	5.04
329.769	-44.11
329.99	70.58
330.212	7.09
330.433	25.52
330.655	5.04
330.876	54.19
331.098	15.28
331.319	46
331.54	-21.58
331.762	86.96
331.983	107.44
332.204	21.42
332.426	-9.29
332.647	35.76
332.868	17.33
333.089	-27.73
333.311	64.43
333.532	78.77
333.753	93.1
333.974	54.19
334.195	13.23
334.416	31.66
334.637	5.04
334.858	31.66
335.079	41.9
335.3	23.47
335.521	25.52
335.742	72.62
335.963	107.44
336.184	46
336.405	29.62
336.626	23.47
336.846	-35.92
337.067	-9.29
337.288	33.71
337.509	-27.73
337.729	5.04
337.95	31.66
338.171	21.42
338.391	13.23
338.612	132.02
338.833	37.81
339.053	15.28
339.274	7.09
339.494	62.38
339.715	39.86
339.935	-17.49
340.156	-1.1
340.376	74.67
340.596	39.86
340.817	46
341.037	25.52
341.257	-11.34
341.478	82.86
341.698	29.62
341.918	64.43
342.138	-27.73
342.359	17.33
342.579	33.71
342.799	29.62
343.019	62.38
343.239	48.05
343.459	21.42
343.679	31.66
343.899	-35.92
344.119	46
344.339	-25.68
344.559	17.33
344.779	-19.53
344.999	84.91
345.219	5.04
345.439	121.78
345.658	46
345.878	54.19
346.098	50.1
346.318	17.33
346.537	99.25
346.757	-11.34
346.977	-52.3
347.196	7.09
347.416	29.62
347.636	68.53
347.855	66.48
348.075	23.47
348.294	148.4
348.514	29.62
348.733	117.68
348.953	9.14
349.172	56.24
349.392	-19.53
349.611	72.62
349.83	46
350.05	35.76
350.269	70.58
350.488	37.81
350.707	31.66
350.927	35.76
351.146	33.71
351.365	27.57
351.584	76.72
351.803	72.62
352.023	29.62
352.242	21.42
352.461	46
352.68	13.23
352.899	91.06
353.118	58.29
353.337	-7.25
353.556	23.47
353.775	39.86
353.993	-9.29
354.212	29.62
354.431	68.53
354.65	39.86
354.869	37.81
355.088	39.86
355.306	7.09
355.525	-25.68
355.744	7.09
355.962	86.96
356.181	74.67
356.4	48.05
356.618	29.62
356.837	17.33
357.055	-44.11
357.274	13.23
357.492	31.66
357.711	13.23
357.929	2.99
358.148	-9.29
358.366	74.67
358.585	-9.29
358.803	13.23
359.021	121.78
359.24	64.43
359.458	-58.45
359.676	23.47
359.894	56.24
360.113	15.28
360.331	41.9
360.549	13.23
360.767	-35.92
360.985	-17.49
361.203	62.38
361.421	-17.49
361.639	68.53
361.857	33.71
362.075	103.34
362.293	17.33
362.511	54.19
362.729	48.05
362.947	58.29
363.165	15.28
363.383	23.47
363.601	54.19
363.819	95.15
364.036	-1.1
364.254	-7.25
364.472	48.05
364.689	13.23
364.907	46
365.125	-3.15
365.342	23.47
365.56	-3.15
365.778	33.71
365.995	66.48
366.213	25.52
366.43	-23.63
366.648	21.42
366.865	46
367.083	91.06
367.3	119.73
367.517	99.25
367.735	37.81
367.952	-27.73
368.17	0.95
368.387	62.38
368.604	54.19
368.821	2.99
369.039	29.62
369.256	-21.58
369.473	17.33
369.69	82.86
369.907	62.38
370.124	52.14
370.341	-33.87
370.558	-7.25
370.776	97.2
370.993	5.04
371.21	17.33
371.426	29.62
371.643	-1.1
371.86	29.62
372.077	37.81
372.294	11.19
372.511	41.9
372.728	33.71
372.945	46
373.161	21.42
373.378	-11.34
373.595	27.57
373.811	-19.53
374.028	54.19
374.245	97.2
374.461	-11.34
374.678	80.82
374.895	27.57
375.111	5.04
375.328	-37.97
375.544	13.23
375.761	17.33
375.977	54.19
376.194	39.86
376.41	48.05
376.626	23.47
376.843	-25.68
377.059	21.42
377.275	39.86
377.492	27.57
377.708	46
377.924	70.58
378.14	-3.15
378.357	46
378.573	31.66
378.789	-66.64
379.005	58.29
379.221	29.62
379.437	25.52
379.653	31.66
379.869	23.47
380.085	0.95
380.301	62.38
380.517	43.95
380.733	25.52
380.949	19.38
381.165	37.81
381.381	41.9
381.597	17.33
381.813	9.14
382.028	62.38
382.244	37.81
382.46	29.62
382.676	64.43
382.891	-9.29
383.107	-17.49
383.323	123.82
383.538	25.52
383.754	62.38
383.969	-5.2
384.185	70.58
384.4	58.29
384.616	103.34
384.831	17.33
385.047	-27.73
385.262	17.33
385.478	41.9
385.693	31.66
385.909	-66.64
386.124	64.43
386.339	46
386.554	-23.63
386.77	23.47
386.985	11.19
387.2	29.62
387.415	5.04
387.631	70.58
387.846	-17.49
388.061	101.3
388.276	43.95
388.491	-3.15
388.706	72.62
388.921	9.14
389.136	48.05
389.351	78.77
389.566	62.38
389.781	-3.15
389.996	74.67
390.211	37.81
390.426	46
390.641	64.43
390.855	23.47
391.07	-44.11
391.285	76.72
391.5	-9.29
391.714	70.58
391.929	64.43
392.144	86.96
392.358	54.19
392.573	58.29
392.788	-17.49
393.002	-40.01
393.217	54.19
393.431	7.09
393.646	-3.15
393.86	62.38
394.075	37.81
394.289	9.14
394.504	29.62
394.718	62.38
394.933	89.01
395.147	39.86
395.361	-9.29
395.576	-3.15
395.79	17.33
396.004	-19.53
396.218	86.96
396.432	62.38
396.647	41.9
396.861	-11.34
397.075	23.47
397.289	74.67
397.503	-35.92
397.717	5.04
397.931	50.1
398.145	19.38
398.359	48.05
398.573	95.15
398.787	-3.15
399.001	64.43
399.215	60.34
399.429	54.19
399.643	50.1
399.857	89.01
400.07	113.58
400.284	35.76
400.498	62.38
400.712	-35.92
400.925	29.62
401.139	-3.15
401.353	-13.39
401.566	134.06
401.78	72.62
401.994	31.66
402.207	-1.1
402.421	95.15
402.634	78.77
402.848	54.19
403.061	-7.25
403.275	-19.53
403.488	74.67
403.702	-9.29
403.915	68.53
404.128	9.14
404.342	17.33
404.555	52.14
404.768	-3.15
404.982	-23.63
405.195	70.58
405.408	15.28
405.621	115.63
405.835	62.38
406.048	5.04
406.261	46
406.474	-15.44
406.687	5.04
406.9	-13.39
407.113	5.04
407.326	29.62
407.539	-3.15
407.752	13.23
407.965	9.14
408.178	66.48
408.391	15.28
408.604	37.81
408.817	5.04
409.029	21.42
409.242	46
409.455	-25.68
409.668	46
409.881	31.66
410.093	66.48
410.306	21.42
410.519	62.38
410.731	33.71
410.944	29.62
411.157	-7.25
411.369	35.76
411.582	72.62
411.794	43.95
412.007	74.67
412.219	78.77
412.432	76.72
412.644	41.9
412.857	48.05
413.069	62.38
413.281	78.77
413.494	80.82
413.706	103.34
413.918	13.23
414.131	125.87
414.343	13.23
414.555	-3.15
414.767	-19.53
414.979	0.95
415.192	37.81
415.404	37.81
415.616	-1.1
415.828	37.81
416.04	43.95
416.252	48.05
416.464	-58.45
416.676	5.04
416.888	-1.1
417.1	7.09
417.312	39.86
417.524	136.11
417.736	-3.15
417.948	5.04
418.159	107.44
418.371	-27.73
418.583	35.76
418.795	29.62
419.007	0.95
419.218	58.29
419.43	13.23
419.642	54.19
419.853	64.43
420.065	-3.15
420.276	46
420.488	15.28
420.7	29.62
420.911	-17.49
421.123	25.52
421.334	29.62
421.546	54.19
421.757	-3.15
421.969	-17.49
422.18	80.82
422.391	-44.11
422.603	31.66
422.814	54.19
423.025	74.67
423.237	39.86
423.448	2.99
423.659	62.38
423.87	-42.06
424.082	-17.49
424.293	33.71
424.504	70.58
424.715	29.62
424.926	41.9
425.137	56.24
425.348	9.14
425.559	62.38
425.77	-17.49
425.981	48.05
426.192	19.38
426.403	25.52
426.614	72.62
426.825	41.9
427.036	50.1
427.247	37.81
427.458	62.38
427.668	-27.73
427.879	-5.2
428.09	48.05
428.301	58.29
428.511	33.71
428.722	64.43
428.933	37.81
429.143	50.1
429.354	21.42
429.565	39.86
429.775	33.71
429.986	5.04
430.196	-3.15
430.407	46
430.617	31.66
430.828	-27.73
431.038	29.62
431.249	-3.15
431.459	78.77
431.669	-21.58
431.88	64.43
432.09	76.72
432.3	27.57
432.511	111.54
432.721	113.58
432.931	82.86
433.141	86.96
433.351	86.96
433.562	115.63
433.772	-58.45
433.982	-11.34
434.192	-31.82
434.402	25.52
434.612	17.33
434.822	54.19
435.032	-1.1
435.242	95.15
435.452	29.62
435.662	23.47
435.872	-15.44
436.082	29.62
436.292	101.3
436.502	19.38
436.711	74.67
436.921	-17.49
437.131	5.04
437.341	5.04
437.551	-44.11
437.76	11.19
437.97	46
438.18	-21.58
438.389	86.96
438.599	99.25
438.808	21.42
439.018	29.62
439.228	46
439.437	29.62
439.647	19.38
439.856	95.15
440.066	-15.44
440.275	37.81
440.484	46
440.694	37.81
440.903	13.23
441.113	39.86
441.322	43.95
441.531	39.86
441.741	31.66
441.95	41.9
442.159	-27.73
442.368	37.81
442.577	62.38
442.787	29.62
442.996	-17.49
443.205	9.14
443.414	70.58
443.623	78.77
443.832	66.48
444.041	54.19
444.25	-33.87
444.459	21.42
444.668	-33.87
444.877	29.62
445.086	70.58
445.295	29.62
445.504	-15.44
445.713	72.62
445.922	39.86
446.13	62.38
446.339	62.38
446.548	86.96
446.757	-27.73
446.965	19.38
447.174	33.71
447.383	5.04
447.591	-33.87
447.8	39.86
448.009	54.19
448.217	23.47
448.426	-17.49
448.634	58.29
448.843	-15.44
449.051	-48.21
449.26	25.52
449.468	13.23
449.677	19.38
449.885	37.81
450.093	-29.77
450.302	46
450.51	25.52
450.719	9.14
450.927	39.86
451.135	21.42
451.343	-44.11
451.552	54.19
451.76	25.52
451.968	23.47
452.176	5.04
452.384	-1.1
452.592	58.29
452.8	86.96
453.009	54.19
453.217	-44.11
453.425	11.19
453.633	54.19
453.841	41.9
454.049	78.77
454.257	19.38
454.464	13.23
454.672	46
454.88	52.14
455.088	-29.77
455.296	78.77
455.504	25.52
455.711	0.95
455.919	-31.82
456.127	13.23
456.335	0.95
456.542	70.58
456.75	64.43
456.958	48.05
457.165	74.67
457.373	52.14
457.581	29.62
457.788	56.24
457.996	25.52
458.203	-48.21
458.411	-15.44
458.618	29.62
458.826	41.9
459.033	123.82
459.24	48.05
459.448	33.71
459.655	-11.34
459.863	27.57
460.07	29.62
460.277	66.48
460.484	119.73
460.692	13.23
460.899	70.58
461.106	56.24
461.313	125.87
461.52	78.77
461.728	62.38
461.935	66.48
462.142	35.76
462.349	-31.82
462.556	46
462.763	-19.53
462.97	31.66
463.177	31.66
463.384	0.95
463.591	5.04
463.798	7.09
464.005	46
464.212	13.23
464.418	-35.92
464.625	-27.73
464.832	-17.49
465.039	11.19
465.246	0.95
465.452	46
465.659	78.77
465.866	64.43
466.072	5.04
466.279	78.77
466.486	86.96
466.692	17.33
466.899	-19.53
467.105	-44.11
467.312	62.38
467.519	-3.15
467.725	29.62
467.931	103.34
468.138	9.14
468.344	33.71
468.551	5.04
468.757	-52.3
468.964	-27.73
469.17	-40.01
469.376	82.86
