Data from light_USB4E013581_00002.txt Node
Date: Wed May 08 15:04:40 EDT 2019
User: dh1006
Spectrometer: USB4E01358
Autoset integration time: false
Trigger mode: 4
Integration Time (sec): 2.925000E-2
Scans to average: 1
Electric dark correction enabled: true
Nonlinearity correction enabled: false
Boxcar width: 0
Stray light correction enabled: false
XAxis mode: Wavelengths
Stop averaging: false
Number of Pixels in Spectrum: 3648
>>>>>Begin Spectral Data<<<<<
176.727	-67.43
176.966	-67.43
177.205	-67.43
177.444	-46.95
177.683	-5.99
177.922	118.94
178.161	12.45
178.4	30.88
178.638	-8.03
178.877	24.73
179.116	14.49
179.355	45.21
179.593	16.54
179.832	20.64
180.071	-48.99
180.309	45.21
180.548	37.02
180.786	47.26
181.025	71.84
181.263	37.02
181.502	94.36
181.74	88.22
181.979	71.84
182.217	135.32
182.456	135.32
182.694	22.69
182.932	77.98
183.17	65.69
183.409	65.69
183.647	73.88
183.885	94.36
184.123	90.27
184.361	73.88
184.6	75.93
184.838	112.8
185.076	96.41
185.314	104.6
185.552	94.36
185.79	127.13
186.028	94.36
186.266	71.84
186.503	80.03
186.741	106.65
186.979	86.17
187.217	65.69
187.455	118.94
187.693	98.46
187.93	84.12
188.168	41.12
188.406	73.88
188.643	96.41
188.881	88.22
189.119	88.22
189.356	49.31
189.594	84.12
189.831	104.6
190.069	94.36
190.306	123.04
190.543	94.36
190.781	94.36
191.018	102.56
191.256	47.26
191.493	0.16
191.73	77.98
191.967	114.84
192.205	88.22
192.442	102.56
192.679	106.65
192.916	127.13
193.153	104.6
193.39	69.79
193.628	118.94
193.865	86.17
194.102	94.36
194.339	88.22
194.576	149.66
194.813	61.6
195.049	86.17
195.286	80.03
195.523	12.45
195.76	71.84
195.997	90.27
196.234	143.52
196.47	86.17
196.707	137.37
196.944	49.31
197.18	104.6
197.417	20.64
197.654	69.79
197.89	14.49
198.127	184.47
198.363	59.55
198.6	92.32
198.836	170.14
199.073	102.56
199.309	135.32
199.546	69.79
199.782	45.21
200.018	108.7
200.255	71.84
200.491	88.22
200.727	80.03
200.963	69.79
201.199	129.18
201.436	100.51
201.672	63.64
201.908	114.84
202.144	106.65
202.38	45.21
202.616	92.32
202.852	151.71
203.088	30.88
203.324	147.61
203.56	77.98
203.796	80.03
204.032	57.5
204.268	41.12
204.503	118.94
204.739	120.99
204.975	86.17
205.211	94.36
205.446	98.46
205.682	161.95
205.918	53.4
206.153	69.79
206.389	133.28
206.625	96.41
206.86	32.93
207.096	65.69
207.331	51.36
207.567	110.75
207.802	90.27
208.037	82.08
208.273	94.36
208.508	28.83
208.744	98.46
208.979	71.84
209.214	45.21
209.449	82.08
209.685	110.75
209.92	82.08
210.155	73.88
210.39	26.78
210.625	45.21
210.86	53.4
211.095	39.07
211.33	65.69
211.565	102.56
211.8	61.6
212.035	53.4
212.27	123.04
212.505	65.69
212.74	110.75
212.975	61.6
213.21	137.37
213.444	71.84
213.679	73.88
213.914	147.61
214.149	63.64
214.383	106.65
214.618	77.98
214.853	37.02
215.087	100.51
215.322	51.36
215.556	61.6
215.791	110.75
216.025	104.6
216.26	71.84
216.494	10.4
216.729	30.88
216.963	77.98
217.197	53.4
217.432	80.03
217.666	53.4
217.9	98.46
218.135	80.03
218.369	172.19
218.603	71.84
218.837	108.7
219.071	94.36
219.306	145.56
219.54	86.17
219.774	127.13
220.008	20.64
220.242	53.4
220.476	57.5
220.71	104.6
220.944	55.45
221.178	69.79
221.411	94.36
221.645	90.27
221.879	61.6
222.113	137.37
222.347	71.84
222.58	28.83
222.814	96.41
223.048	168.09
223.281	94.36
223.515	110.75
223.749	-3.94
223.982	159.9
224.216	82.08
224.449	77.98
224.683	80.03
224.916	118.94
225.15	161.95
225.383	73.88
225.617	112.8
225.85	73.88
226.083	59.55
226.317	61.6
226.55	55.45
226.783	137.37
227.016	94.36
227.25	90.27
227.483	123.04
227.716	135.32
227.949	88.22
228.182	69.79
228.415	86.17
228.648	98.46
228.881	123.04
229.114	151.71
229.347	108.7
229.58	110.75
229.813	30.88
230.046	94.36
230.279	92.32
230.512	110.75
230.745	114.84
230.977	131.23
231.21	96.41
231.443	127.13
231.675	53.4
231.908	80.03
232.141	82.08
232.373	98.46
232.606	104.6
232.839	61.6
233.071	51.36
233.304	120.99
233.536	94.36
233.769	65.69
234.001	155.8
234.233	53.4
234.466	139.42
234.698	114.84
234.93	137.37
235.163	65.69
235.395	37.02
235.627	84.12
235.86	137.37
236.092	57.5
236.324	86.17
236.556	120.99
236.788	96.41
237.02	73.88
237.252	16.54
237.484	116.89
237.716	77.98
237.948	28.83
238.18	112.8
238.412	131.23
238.644	86.17
238.876	102.56
239.108	90.27
239.34	192.67
239.571	143.52
239.803	106.65
240.035	120.99
240.267	135.32
240.498	135.32
240.73	32.93
240.962	100.51
241.193	28.83
241.425	77.98
241.656	53.4
241.888	110.75
242.119	86.17
242.351	102.56
242.582	129.18
242.814	69.79
243.045	75.93
243.277	84.12
243.508	32.93
243.739	96.41
243.971	84.12
244.202	92.32
244.433	102.56
244.664	82.08
244.896	129.18
245.127	98.46
245.358	135.32
245.589	41.12
245.82	41.12
246.051	61.6
246.282	57.5
246.513	118.94
246.744	98.46
246.975	123.04
247.206	147.61
247.437	39.07
247.668	110.75
247.899	-3.94
248.129	82.08
248.36	110.75
248.591	112.8
248.822	43.16
249.052	110.75
249.283	98.46
249.514	118.94
249.744	96.41
249.975	127.13
250.206	88.22
250.436	157.85
250.667	57.5
250.897	110.75
251.128	104.6
251.358	118.94
251.589	88.22
251.819	151.71
252.049	102.56
252.28	202.91
252.51	155.8
252.74	127.13
252.971	22.69
253.201	47.26
253.431	75.93
253.661	102.56
253.891	61.6
254.121	114.84
254.352	98.46
254.582	94.36
254.812	106.65
255.042	71.84
255.272	71.84
255.502	135.32
255.732	145.56
255.962	84.12
256.192	53.4
256.421	114.84
256.651	73.88
256.881	127.13
257.111	90.27
257.341	41.12
257.57	45.21
257.8	24.73
258.03	127.13
258.259	127.13
258.489	110.75
258.719	80.03
258.948	41.12
259.178	94.36
259.407	114.84
259.637	94.36
259.866	22.69
260.096	110.75
260.325	80.03
260.555	106.65
260.784	143.52
261.013	53.4
261.243	127.13
261.472	127.13
261.701	102.56
261.931	151.71
262.16	98.46
262.389	106.65
262.618	65.69
262.847	159.9
263.076	53.4
263.305	86.17
263.535	145.56
263.764	-3.94
263.993	118.94
264.222	94.36
264.451	168.09
264.679	104.6
264.908	41.12
265.137	96.41
265.366	135.32
265.595	96.41
265.824	118.94
266.053	45.21
266.281	45.21
266.51	135.32
266.739	102.56
266.967	131.23
267.196	73.88
267.425	96.41
267.653	37.02
267.882	98.46
268.11	73.88
268.339	98.46
268.567	118.94
268.796	137.37
269.024	118.94
269.253	104.6
269.481	129.18
269.709	43.16
269.938	102.56
270.166	61.6
270.394	123.04
270.623	73.88
270.851	170.14
271.079	110.75
271.307	69.79
271.535	94.36
271.764	28.83
271.992	204.95
272.22	102.56
272.448	114.84
272.676	147.61
272.904	20.64
273.132	118.94
273.36	127.13
273.588	100.51
273.816	168.09
274.043	32.93
274.271	139.42
274.499	151.71
274.727	127.13
274.955	98.46
275.182	63.64
275.41	135.32
275.638	118.94
275.866	112.8
276.093	129.18
276.321	65.69
276.548	77.98
276.776	77.98
277.003	131.23
277.231	135.32
277.458	102.56
277.686	92.32
277.913	104.6
278.141	102.56
278.368	118.94
278.595	112.8
278.823	71.84
279.05	178.33
279.277	32.93
279.505	63.64
279.732	102.56
279.959	114.84
280.186	116.89
280.413	94.36
280.641	112.8
280.868	104.6
281.095	82.08
281.322	102.56
281.549	127.13
281.776	114.84
282.003	108.7
282.23	57.5
282.457	123.04
282.683	133.28
282.91	73.88
283.137	94.36
283.364	143.52
283.591	100.51
283.818	94.36
284.044	135.32
284.271	94.36
284.498	129.18
284.724	108.7
284.951	88.22
285.178	59.55
285.404	71.84
285.631	37.02
285.857	108.7
286.084	147.61
286.31	63.64
286.537	88.22
286.763	143.52
286.99	47.26
287.216	2.21
287.442	49.31
287.669	63.64
287.895	147.61
288.121	149.66
288.347	114.84
288.574	139.42
288.8	69.79
289.026	118.94
289.252	151.71
289.478	155.8
289.704	112.8
289.931	82.08
290.157	77.98
290.383	47.26
290.609	104.6
290.835	73.88
291.06	131.23
291.286	69.79
291.512	39.07
291.738	94.36
291.964	118.94
292.19	120.99
292.416	120.99
292.641	16.54
292.867	145.56
293.093	53.4
293.319	161.95
293.544	61.6
293.77	80.03
293.995	84.12
294.221	108.7
294.447	77.98
294.672	67.74
294.898	61.6
295.123	94.36
295.349	53.4
295.574	90.27
295.799	161.95
296.025	82.08
296.25	118.94
296.476	98.46
296.701	161.95
296.926	127.13
297.151	123.04
297.377	159.9
297.602	108.7
297.827	123.04
298.052	41.12
298.277	86.17
298.502	37.02
298.727	192.67
298.953	114.84
299.178	118.94
299.403	80.03
299.628	110.75
299.852	184.47
300.077	96.41
300.302	98.46
300.527	143.52
300.752	65.69
300.977	159.9
301.202	110.75
301.426	116.89
301.651	114.84
301.876	116.89
302.101	71.84
302.325	102.56
302.55	135.32
302.775	82.08
302.999	-1.89
303.224	157.85
303.448	114.84
303.673	110.75
303.897	100.51
304.122	82.08
304.346	90.27
304.571	131.23
304.795	131.23
305.019	88.22
305.244	106.65
305.468	94.36
305.692	69.79
305.917	120.99
306.141	159.9
306.365	143.52
306.589	118.94
306.813	112.8
307.038	110.75
307.262	88.22
307.486	80.03
307.71	161.95
307.934	151.71
308.158	20.64
308.382	84.12
308.606	164
308.83	73.88
309.054	86.17
309.278	65.69
309.502	94.36
309.725	41.12
309.949	145.56
310.173	120.99
310.397	159.9
310.62	102.56
310.844	141.47
311.068	110.75
311.292	92.32
311.515	82.08
311.739	94.36
311.962	102.56
312.186	143.52
312.41	73.88
312.633	145.56
312.857	131.23
313.08	159.9
313.303	86.17
313.527	139.42
313.75	151.71
313.974	143.52
314.197	143.52
314.42	135.32
314.644	77.98
314.867	110.75
315.09	94.36
315.313	145.56
315.536	112.8
315.76	88.22
315.983	106.65
316.206	133.28
316.429	125.08
316.652	106.65
316.875	39.07
317.098	77.98
317.321	131.23
317.544	98.46
317.767	112.8
317.99	102.56
318.213	100.51
318.436	172.19
318.658	118.94
318.881	118.94
319.104	129.18
319.327	71.84
319.55	39.07
319.772	110.75
319.995	159.9
320.218	131.23
320.44	151.71
320.663	102.56
320.885	147.61
321.108	149.66
321.331	155.8
321.553	155.8
321.776	108.7
321.998	77.98
322.22	88.22
322.443	116.89
322.665	110.75
322.888	41.12
323.11	45.21
323.332	65.69
323.555	102.56
323.777	135.32
323.999	69.79
324.221	69.79
324.443	98.46
324.666	155.8
324.888	77.98
325.11	110.75
325.332	127.13
325.554	88.22
325.776	63.64
325.998	120.99
326.22	47.26
326.442	176.28
326.664	141.47
326.886	96.41
327.108	75.93
327.33	65.69
327.551	98.46
327.773	118.94
327.995	98.46
328.217	90.27
328.439	129.18
328.66	147.61
328.882	67.74
329.104	139.42
329.325	-5.99
329.547	98.46
329.769	135.32
329.99	110.75
330.212	77.98
330.433	100.51
330.655	131.23
330.876	164
331.098	114.84
331.319	172.19
331.54	94.36
331.762	178.33
331.983	98.46
332.204	110.75
332.426	133.28
332.647	147.61
332.868	118.94
333.089	59.55
333.311	114.84
333.532	151.71
333.753	114.84
333.974	86.17
334.195	127.13
334.416	114.84
334.637	168.09
334.858	69.79
335.079	127.13
335.3	135.32
335.521	131.23
335.742	118.94
335.963	69.79
336.184	161.95
336.405	141.47
336.626	112.8
336.846	65.69
337.067	147.61
337.288	135.32
337.509	118.94
337.729	53.4
337.95	125.08
338.171	80.03
338.391	159.9
338.612	71.84
338.833	53.4
339.053	77.98
339.274	73.88
339.494	90.27
339.715	106.65
339.935	94.36
340.156	151.71
340.376	168.09
340.596	63.64
340.817	123.04
341.037	149.66
341.257	32.93
341.478	118.94
341.698	123.04
341.918	102.56
342.138	92.32
342.359	116.89
342.579	57.5
342.799	127.13
343.019	202.91
343.239	143.52
343.459	12.45
343.679	139.42
343.899	172.19
344.119	94.36
344.339	118.94
344.559	131.23
344.779	149.66
344.999	186.52
345.219	118.94
345.439	176.28
345.658	98.46
345.878	118.94
346.098	143.52
346.318	147.61
346.537	45.21
346.757	110.75
346.977	106.65
347.196	143.52
347.416	110.75
347.636	155.8
347.855	123.04
348.075	82.08
348.294	129.18
348.514	141.47
348.733	139.42
348.953	184.47
349.172	92.32
349.392	176.28
349.611	75.93
349.83	164
350.05	110.75
350.269	106.65
350.488	159.9
350.707	125.08
350.927	96.41
351.146	176.28
351.365	131.23
351.584	82.08
351.803	112.8
352.023	55.45
352.242	139.42
352.461	149.66
352.68	45.21
352.899	47.26
353.118	178.33
353.337	47.26
353.556	102.56
353.775	41.12
353.993	110.75
354.212	80.03
354.431	149.66
354.65	73.88
354.869	73.88
355.088	143.52
355.306	90.27
355.525	84.12
355.744	104.6
355.962	135.32
356.181	98.46
356.4	129.18
356.618	98.46
356.837	139.42
357.055	116.89
357.274	108.7
357.492	139.42
357.711	159.9
357.929	96.41
358.148	92.32
358.366	137.37
358.585	131.23
358.803	104.6
359.021	98.46
359.24	192.67
359.458	129.18
359.676	102.56
359.894	98.46
360.113	69.79
360.331	59.55
360.549	159.9
360.767	170.14
360.985	77.98
361.203	112.8
361.421	155.8
361.639	118.94
361.857	123.04
362.075	209.05
362.293	90.27
362.511	137.37
362.729	202.91
362.947	127.13
363.165	110.75
363.383	102.56
363.601	116.89
363.819	200.86
364.036	84.12
364.254	120.99
364.472	34.97
364.689	118.94
364.907	129.18
365.125	116.89
365.342	45.21
365.56	170.14
365.778	147.61
365.995	104.6
366.213	102.56
366.43	127.13
366.648	102.56
366.865	184.47
367.083	157.85
367.3	159.9
367.517	135.32
367.735	82.08
367.952	80.03
368.17	151.71
368.387	82.08
368.604	153.76
368.821	114.84
369.039	159.9
369.256	104.6
369.473	73.88
369.69	127.13
369.907	77.98
370.124	143.52
370.341	90.27
370.558	32.93
370.776	164
370.993	161.95
371.21	129.18
371.426	106.65
371.643	73.88
371.86	94.36
372.077	170.14
372.294	100.51
372.511	164
372.728	86.17
372.945	143.52
373.161	118.94
373.378	96.41
373.595	157.85
373.811	106.65
374.028	135.32
374.245	98.46
374.461	102.56
374.678	135.32
374.895	143.52
375.111	170.14
375.328	110.75
375.544	139.42
375.761	159.9
375.977	73.88
376.194	153.76
376.41	77.98
376.626	112.8
376.843	118.94
377.059	178.33
377.275	182.43
377.492	153.76
377.708	170.14
377.924	194.71
378.14	120.99
378.357	141.47
378.573	84.12
378.789	147.61
379.005	88.22
379.221	69.79
379.437	92.32
379.653	96.41
379.869	133.28
380.085	204.95
380.301	233.63
380.517	159.9
380.733	102.56
380.949	104.6
381.165	153.76
381.381	110.75
381.597	153.76
381.813	155.8
382.028	200.86
382.244	180.38
382.46	182.43
382.676	262.3
382.891	241.82
383.107	172.19
383.323	151.71
383.538	135.32
383.754	235.67
383.969	252.06
384.185	215.19
384.4	127.13
384.616	217.24
384.831	159.9
385.047	131.23
385.262	237.72
385.478	168.09
385.693	268.44
385.909	153.76
386.124	200.86
386.339	217.24
386.554	153.76
386.77	180.38
386.985	159.9
387.2	233.63
387.415	237.72
387.631	186.52
387.846	145.56
388.061	184.47
388.276	219.29
388.491	209.05
388.706	184.47
388.921	192.67
389.136	200.86
389.351	159.9
389.566	221.34
389.781	258.2
389.996	194.71
390.211	198.81
390.426	256.15
390.641	194.71
390.855	186.52
391.07	282.78
391.285	237.72
391.5	213.15
391.714	241.82
391.929	309.4
392.144	258.2
392.358	333.98
392.573	213.15
392.788	229.53
393.002	250.01
393.217	250.01
393.431	260.25
393.646	239.77
393.86	307.35
394.075	309.4
394.289	286.87
394.504	235.67
394.718	348.31
394.933	288.92
395.147	368.79
395.361	315.54
395.576	426.14
395.79	399.51
396.004	413.85
396.218	366.74
396.432	366.74
396.647	413.85
396.861	381.08
397.075	405.66
397.289	395.42
397.503	463
397.717	401.56
397.931	432.28
398.145	409.75
398.359	452.76
398.573	450.71
398.787	520.34
399.001	401.56
399.215	389.27
399.429	602.26
399.643	477.33
399.857	508.05
400.07	565.4
400.284	561.3
400.498	544.92
400.712	571.54
400.925	553.11
401.139	471.19
401.353	561.3
401.566	680.08
401.78	682.13
401.994	618.64
402.207	602.26
402.421	653.46
402.634	637.08
402.848	675.99
403.061	643.22
403.275	739.47
403.488	778.39
403.702	811.15
403.915	712.85
404.128	839.82
404.342	757.91
404.555	782.48
404.768	817.3
404.982	839.82
405.195	880.78
405.408	839.82
405.621	1003.66
405.835	899.22
406.048	962.7
406.261	936.08
406.474	979.09
406.687	974.99
406.9	1026.19
407.113	993.42
407.326	974.99
407.539	1024.14
407.752	1128.59
407.965	1138.83
408.178	1028.24
408.391	1110.16
408.604	1200.27
408.817	1251.47
409.029	1265.8
409.242	1208.46
409.455	1271.95
409.668	1333.39
409.881	1343.63
410.093	1339.53
410.306	1298.57
410.519	1360.01
410.731	1347.72
410.944	1298.57
411.157	1405.06
411.369	1552.52
411.582	1573
411.794	1589.38
412.007	1507.46
412.219	1495.17
412.432	1552.52
412.644	1693.83
412.857	1683.59
413.069	1738.88
413.281	1740.93
413.494	1634.44
413.706	1683.59
413.918	1699.97
414.131	1740.93
414.343	1765.51
414.555	1777.79
414.767	1816.71
414.979	1702.02
415.192	1740.93
415.404	1831.04
415.616	1882.24
415.828	1831.04
416.04	2007.17
416.252	1759.36
416.464	2007.17
416.676	2019.45
416.888	1986.69
417.1	1888.38
417.312	2044.03
417.524	2005.12
417.736	2105.47
417.948	2119.81
418.159	2144.38
418.371	1941.63
418.583	2121.85
418.795	2027.65
419.007	2068.61
419.218	2259.07
419.43	2093.18
419.642	2216.06
419.853	2320.51
420.065	2160.76
420.276	2297.98
420.488	2363.51
420.7	2242.68
420.911	2404.47
421.123	2367.61
421.334	2297.98
421.546	2275.45
421.757	2470.01
421.969	2396.28
422.18	2424.95
422.391	2330.75
422.603	2429.05
422.814	2529.4
423.025	2543.73
423.237	2381.95
423.448	2529.4
423.659	2668.66
423.87	2543.73
424.082	2592.89
424.293	2490.49
424.504	2580.6
424.715	2668.66
424.926	2670.71
425.137	2510.97
425.348	2504.82
425.559	2568.31
425.77	2637.94
425.981	2621.56
426.192	2687.09
426.403	2789.49
426.614	2699.38
426.825	2764.92
427.036	2644.09
427.247	2558.07
427.458	2740.34
427.668	2721.91
427.879	2601.08
428.09	2605.17
428.301	2879.6
428.511	2502.78
428.722	2629.75
428.933	2740.34
429.143	2715.76
429.354	2781.3
429.565	2973.81
429.775	2906.23
429.986	2785.4
430.196	2635.89
430.407	2820.21
430.617	2777.2
430.828	2699.38
431.038	2793.59
431.249	2715.76
431.459	2840.69
431.669	2783.35
431.88	2809.97
432.09	2728.05
432.3	2920.56
432.511	2855.03
432.721	2756.72
432.931	2875.51
433.141	2793.59
433.351	2744.44
433.562	2793.59
433.772	2988.14
433.982	2857.07
434.192	2883.7
434.402	2871.41
434.612	2664.56
434.822	2863.22
435.032	2871.41
435.242	2809.97
435.452	2891.89
435.662	2674.8
435.872	2820.21
436.082	2809.97
436.292	2707.57
436.502	2715.76
436.711	2873.46
436.921	2762.87
437.131	2873.46
437.341	2695.28
437.551	2932.85
437.76	2728.05
437.97	2744.44
438.18	2717.81
438.389	2676.85
438.599	2711.67
438.808	2680.95
439.018	2807.92
439.228	2666.61
439.437	2633.85
439.647	2674.8
439.856	2656.37
440.066	2685.04
440.275	2728.05
440.484	2709.62
440.694	2693.24
440.903	2732.15
441.113	2515.06
441.322	2723.96
441.531	2625.65
441.741	2805.87
441.95	2726
442.159	2756.72
442.368	2746.48
442.577	2705.52
442.787	2535.54
442.996	2695.28
443.205	2670.71
443.414	2842.74
443.623	2617.46
443.832	2629.75
444.041	2623.61
444.25	2470.01
444.459	2582.65
444.668	2619.51
444.877	2615.41
445.086	2592.89
445.295	2539.64
445.504	2588.79
445.713	2447.48
445.922	2553.97
446.13	2642.04
446.339	2541.69
446.548	2461.82
446.757	2523.26
446.965	2510.97
447.174	2463.86
447.383	2496.63
447.591	2443.38
447.8	2357.37
448.009	2562.17
448.217	2568.31
448.426	2539.64
448.634	2396.28
448.843	2627.7
449.051	2402.42
449.26	2547.83
449.468	2496.63
449.677	2558.07
449.885	2433.14
450.093	2510.97
450.302	2449.53
450.51	2504.82
450.719	2445.43
450.927	2543.73
451.135	2619.51
451.343	2584.69
451.552	2611.32
451.76	2560.12
451.968	2447.48
452.176	2465.91
452.384	2519.16
452.592	2474.1
452.8	2535.54
453.009	2492.54
453.217	2537.59
453.425	2496.63
453.633	2416.76
453.841	2476.15
454.049	2416.76
454.257	2513.02
454.464	2445.43
454.672	2584.69
454.88	2535.54
455.088	2504.82
455.296	2361.47
455.504	2302.07
