Data from light_USB4E013581_00009.txt Node
Date: Wed May 08 15:04:41 EDT 2019
User: dh1006
Spectrometer: USB4E01358
Autoset integration time: false
Trigger mode: 4
Integration Time (sec): 2.925000E-2
Scans to average: 1
Electric dark correction enabled: true
Nonlinearity correction enabled: false
Boxcar width: 0
Stray light correction enabled: false
XAxis mode: Wavelengths
Stop averaging: false
Number of Pixels in Spectrum: 3648
>>>>>Begin Spectral Data<<<<<
176.727	-14.81
176.966	-14.81
177.205	-14.81
177.444	-39.38
177.683	-45.53
177.922	3.62
178.161	3.62
178.4	9.77
178.638	3.62
178.877	99.88
179.116	-20.95
179.355	60.97
179.593	-31.19
179.832	9.77
180.071	58.92
180.309	34.34
180.548	36.39
180.786	9.77
181.025	34.34
181.263	5.67
181.502	42.53
181.74	124.45
181.979	58.92
182.217	140.84
182.456	155.17
182.694	108.07
182.932	44.58
183.17	91.69
183.409	58.92
183.647	26.15
183.885	11.82
184.123	95.78
184.361	67.11
184.6	13.86
184.838	75.3
185.076	140.84
185.314	128.55
185.552	-16.86
185.79	140.84
186.028	34.34
186.266	108.07
186.503	36.39
186.741	116.26
186.979	87.59
187.217	-6.62
187.455	112.17
187.693	56.87
187.93	60.97
188.168	63.01
188.406	95.78
188.643	87.59
188.881	63.01
189.119	75.3
189.356	46.63
189.594	50.73
189.831	132.65
190.069	83.49
190.306	11.82
190.543	50.73
190.781	108.07
191.018	42.53
191.256	103.97
191.493	26.15
191.73	110.12
191.967	95.78
192.205	13.86
192.442	79.4
192.679	79.4
192.916	91.69
193.153	63.01
193.39	58.92
193.628	95.78
193.865	91.69
194.102	161.32
194.339	58.92
194.576	58.92
194.813	46.63
195.049	77.35
195.286	83.49
195.523	38.44
195.76	110.12
195.997	93.73
196.234	54.82
196.47	99.88
196.707	54.82
196.944	77.35
197.18	50.73
197.417	-6.62
197.654	93.73
197.89	101.93
198.127	120.36
198.363	99.88
198.6	93.73
198.836	7.72
199.073	112.17
199.309	60.97
199.546	132.65
199.782	42.53
200.018	87.59
200.255	48.68
200.491	73.25
200.727	67.11
200.963	85.54
201.199	58.92
201.436	75.3
201.672	71.21
201.908	50.73
202.144	83.49
202.38	99.88
202.616	93.73
202.852	169.51
203.088	91.69
203.324	112.17
203.56	75.3
203.796	77.35
204.032	77.35
204.268	42.53
204.503	85.54
204.739	81.45
204.975	124.45
205.211	83.49
205.446	103.97
205.682	103.97
205.918	83.49
206.153	122.41
206.389	34.34
206.625	60.97
206.86	60.97
207.096	108.07
207.331	5.67
207.567	132.65
207.802	-27.1
208.037	134.69
208.273	99.88
208.508	30.25
208.744	60.97
208.979	34.34
209.214	58.92
209.449	118.31
209.685	103.97
209.92	120.36
210.155	81.45
210.39	48.68
210.625	81.45
210.86	91.69
211.095	132.65
211.33	77.35
211.565	17.96
211.8	71.21
212.035	75.3
212.27	71.21
212.505	120.36
212.74	87.59
212.975	67.11
213.21	97.83
213.444	99.88
213.679	71.21
213.914	26.15
214.149	30.25
214.383	99.88
214.618	-23
214.853	46.63
215.087	126.5
215.322	71.21
215.556	91.69
215.791	79.4
216.025	85.54
216.26	63.01
216.494	67.11
216.729	112.17
216.963	73.25
217.197	67.11
217.432	65.06
217.666	42.53
217.9	95.78
218.135	63.01
218.369	181.8
218.603	136.74
218.837	144.93
219.071	50.73
219.306	108.07
219.54	89.64
219.774	63.01
220.008	50.73
220.242	67.11
220.476	103.97
220.71	79.4
220.944	110.12
221.178	103.97
221.411	167.46
221.645	60.97
221.879	-4.57
222.113	144.93
222.347	58.92
222.58	93.73
222.814	134.69
223.048	142.89
223.281	22.06
223.515	17.96
223.749	83.49
223.982	77.35
224.216	122.41
224.449	50.73
224.683	34.34
224.916	108.07
225.15	56.87
225.383	26.15
225.617	87.59
225.85	108.07
226.083	124.45
226.317	122.41
226.55	108.07
226.783	58.92
227.016	79.4
227.25	87.59
227.483	67.11
227.716	108.07
227.949	46.63
228.182	124.45
228.415	81.45
228.648	91.69
228.881	60.97
229.114	87.59
229.347	38.44
229.58	60.97
229.813	67.11
230.046	103.97
230.279	91.69
230.512	36.39
230.745	75.3
230.977	83.49
231.21	60.97
231.443	91.69
231.675	71.21
231.908	65.06
232.141	73.25
232.373	77.35
232.606	124.45
232.839	114.21
233.071	58.92
233.304	20.01
233.536	56.87
233.769	40.49
234.001	110.12
234.233	124.45
234.466	69.16
234.698	142.89
234.93	157.22
235.163	79.4
235.395	73.25
235.627	79.4
235.86	85.54
236.092	132.65
236.324	40.49
236.556	124.45
236.788	167.46
237.02	71.21
237.252	79.4
237.484	153.13
237.716	54.82
237.948	122.41
238.18	34.34
238.412	108.07
238.644	120.36
238.876	-8.66
239.108	67.11
239.34	54.82
239.571	91.69
239.803	77.35
240.035	5.67
240.267	56.87
240.498	17.96
240.73	58.92
240.962	95.78
241.193	54.82
241.425	149.03
241.656	75.3
241.888	71.21
242.119	120.36
242.351	189.99
242.582	58.92
242.814	91.69
243.045	60.97
243.277	87.59
243.508	44.58
243.739	44.58
243.971	95.78
244.202	67.11
244.433	26.15
244.664	50.73
244.896	142.89
245.127	63.01
245.358	69.16
245.589	101.93
245.82	79.4
246.051	5.67
246.282	87.59
246.513	67.11
246.744	87.59
246.975	65.06
247.206	91.69
247.437	56.87
247.668	87.59
247.899	124.45
248.129	101.93
248.36	83.49
248.591	91.69
248.822	34.34
249.052	56.87
249.283	140.84
249.514	77.35
249.744	69.16
249.975	42.53
250.206	77.35
250.436	103.97
250.667	77.35
250.897	81.45
251.128	44.58
251.358	42.53
251.589	116.26
251.819	40.49
252.049	118.31
252.28	128.55
252.51	87.59
252.74	81.45
252.971	36.39
253.201	108.07
253.431	75.3
253.661	34.34
253.891	140.84
254.121	93.73
254.352	138.79
254.582	134.69
254.812	46.63
255.042	116.26
255.272	95.78
255.502	50.73
255.732	77.35
255.962	71.21
256.192	46.63
256.421	79.4
256.651	20.01
256.881	67.11
257.111	130.6
257.341	69.16
257.57	58.92
257.8	5.67
258.03	108.07
258.259	124.45
258.489	44.58
258.719	83.49
258.948	56.87
259.178	99.88
259.407	58.92
259.637	151.08
259.866	17.96
260.096	128.55
260.325	120.36
260.555	93.73
260.784	89.64
261.013	34.34
261.243	50.73
261.472	126.5
261.701	81.45
261.931	52.77
262.16	159.27
262.389	67.11
262.618	58.92
262.847	138.79
263.076	103.97
263.305	118.31
263.535	99.88
263.764	75.3
263.993	91.69
264.222	103.97
264.451	3.62
264.679	69.16
264.908	118.31
265.137	157.22
265.366	75.3
265.595	108.07
265.824	50.73
266.053	-4.57
266.281	87.59
266.51	116.26
266.739	167.46
266.967	93.73
267.196	153.13
267.425	67.11
267.653	58.92
267.882	95.78
268.11	-2.52
268.339	85.54
268.567	136.74
268.796	142.89
269.024	83.49
269.253	110.12
269.481	26.15
269.709	116.26
269.938	124.45
270.166	79.4
270.394	52.77
270.623	87.59
270.851	75.3
271.079	122.41
271.307	40.49
271.535	52.77
271.764	75.3
271.992	112.17
272.22	52.77
272.448	181.8
272.676	103.97
272.904	118.31
273.132	140.84
273.36	83.49
273.588	132.65
273.816	157.22
274.043	149.03
274.271	11.82
274.499	65.06
274.727	83.49
274.955	116.26
275.182	28.2
275.41	71.21
275.638	116.26
275.866	36.39
276.093	134.69
276.321	60.97
276.548	91.69
276.776	50.73
277.003	54.82
277.231	52.77
277.458	91.69
277.686	101.93
277.913	60.97
278.141	71.21
278.368	26.15
278.595	122.41
278.823	124.45
279.05	140.84
279.277	108.07
279.505	99.88
279.732	103.97
279.959	40.49
280.186	128.55
280.413	69.16
280.641	38.44
280.868	116.26
281.095	20.01
281.322	132.65
281.549	60.97
281.776	185.89
282.003	17.96
282.23	83.49
282.457	116.26
282.683	146.98
282.91	95.78
283.137	122.41
283.364	71.21
283.591	116.26
283.818	91.69
284.044	48.68
284.271	126.5
284.498	91.69
284.724	153.13
284.951	40.49
285.178	38.44
285.404	28.2
285.631	67.11
285.857	112.17
286.084	126.5
286.31	91.69
286.537	77.35
286.763	99.88
286.99	58.92
287.216	108.07
287.442	108.07
287.669	116.26
287.895	73.25
288.121	103.97
288.347	77.35
288.574	155.17
288.8	181.8
289.026	116.26
289.252	99.88
289.478	91.69
289.704	83.49
289.931	79.4
290.157	83.49
290.383	116.26
290.609	17.96
290.835	128.55
291.06	99.88
291.286	46.63
291.512	116.26
291.738	128.55
291.964	77.35
292.19	99.88
292.416	110.12
292.641	44.58
292.867	83.49
293.093	87.59
293.319	67.11
293.544	38.44
293.77	24.1
293.995	136.74
294.221	42.53
294.447	118.31
294.672	17.96
294.898	56.87
295.123	116.26
295.349	132.65
295.574	91.69
295.799	140.84
296.025	101.93
296.25	101.93
296.476	120.36
296.701	142.89
296.926	73.25
297.151	38.44
297.377	46.63
297.602	95.78
297.827	42.53
298.052	75.3
298.277	75.3
298.502	5.67
298.727	112.17
298.953	124.45
299.178	118.31
299.403	149.03
299.628	116.26
299.852	101.93
300.077	67.11
300.302	101.93
300.527	124.45
300.752	99.88
300.977	93.73
301.202	130.6
301.426	81.45
301.651	79.4
301.876	93.73
302.101	63.01
302.325	114.21
302.55	79.4
302.775	71.21
302.999	124.45
303.224	120.36
303.448	67.11
303.673	91.69
303.897	157.22
304.122	118.31
304.346	126.5
304.571	120.36
304.795	83.49
305.019	118.31
305.244	9.77
305.468	50.73
305.692	106.02
305.917	11.82
306.141	95.78
306.365	134.69
306.589	95.78
306.813	179.75
307.038	142.89
307.262	56.87
307.486	65.06
307.71	54.82
307.934	50.73
308.158	128.55
308.382	58.92
308.606	99.88
308.83	144.93
309.054	95.78
309.278	167.46
309.502	126.5
309.725	75.3
309.949	89.64
310.173	128.55
310.397	106.02
310.62	71.21
310.844	91.69
311.068	75.3
311.292	67.11
311.515	15.91
311.739	149.03
311.962	67.11
312.186	79.4
312.41	60.97
312.633	91.69
312.857	87.59
313.08	87.59
313.303	134.69
313.527	138.79
313.75	116.26
313.974	108.07
314.197	52.77
314.42	79.4
314.644	32.29
314.867	126.5
315.09	130.6
315.313	83.49
315.536	83.49
315.76	108.07
315.983	87.59
316.206	42.53
316.429	103.97
316.652	87.59
316.875	120.36
317.098	34.34
317.321	116.26
317.544	81.45
317.767	75.3
317.99	93.73
318.213	85.54
318.436	50.73
318.658	169.51
318.881	128.55
319.104	58.92
319.327	149.03
319.55	67.11
319.772	99.88
319.995	108.07
320.218	67.11
320.44	97.83
320.663	118.31
320.885	108.07
321.108	75.3
321.331	69.16
321.553	99.88
321.776	85.54
321.998	67.11
322.22	144.93
322.443	110.12
322.665	93.73
322.888	93.73
323.11	63.01
323.332	144.93
323.555	87.59
323.777	157.22
323.999	120.36
324.221	126.5
324.443	83.49
324.666	58.92
324.888	34.34
325.11	75.3
325.332	118.31
325.554	75.3
325.776	124.45
325.998	128.55
326.22	83.49
326.442	124.45
326.664	116.26
326.886	116.26
327.108	69.16
327.33	138.79
327.551	67.11
327.773	108.07
327.995	83.49
328.217	103.97
328.439	67.11
328.66	63.01
328.882	101.93
329.104	169.51
329.325	87.59
329.547	22.06
329.769	124.45
329.99	75.3
330.212	124.45
330.433	173.6
330.655	34.34
330.876	132.65
331.098	67.11
331.319	124.45
331.54	54.82
331.762	116.26
331.983	63.01
332.204	128.55
332.426	79.4
332.647	126.5
332.868	108.07
333.089	26.15
333.311	173.6
333.532	173.6
333.753	36.39
333.974	140.84
334.195	38.44
334.416	126.5
334.637	34.34
334.858	149.03
335.079	93.73
335.3	44.58
335.521	159.27
335.742	93.73
335.963	110.12
336.184	128.55
336.405	140.84
336.626	93.73
336.846	71.21
337.067	140.84
337.288	83.49
337.509	63.01
337.729	116.26
337.95	58.92
338.171	101.93
338.391	126.5
338.612	85.54
338.833	136.74
339.053	134.69
339.274	42.53
339.494	50.73
339.715	159.27
339.935	108.07
340.156	116.26
340.376	93.73
340.596	110.12
340.817	60.97
341.037	167.46
341.257	134.69
341.478	128.55
341.698	108.07
341.918	87.59
342.138	38.44
342.359	116.26
342.579	124.45
342.799	153.13
343.019	110.12
343.239	93.73
343.459	58.92
343.679	165.41
343.899	99.88
344.119	85.54
344.339	116.26
344.559	134.69
344.779	44.58
344.999	134.69
345.219	140.84
345.439	134.69
345.658	136.74
345.878	81.45
346.098	79.4
346.318	136.74
346.537	54.82
346.757	144.93
346.977	85.54
347.196	126.5
347.416	99.88
347.636	112.17
347.855	103.97
348.075	124.45
348.294	112.17
348.514	97.83
348.733	99.88
348.953	165.41
349.172	91.69
349.392	140.84
349.611	83.49
349.83	118.31
350.05	73.25
350.269	83.49
350.488	79.4
350.707	99.88
350.927	108.07
351.146	120.36
351.365	108.07
351.584	30.25
351.803	63.01
352.023	112.17
352.242	130.6
352.461	153.13
352.68	116.26
352.899	101.93
353.118	97.83
353.337	106.02
353.556	52.77
353.775	44.58
353.993	44.58
354.212	108.07
354.431	128.55
354.65	112.17
354.869	85.54
355.088	144.93
355.306	106.02
355.525	83.49
355.744	124.45
355.962	58.92
356.181	75.3
356.4	42.53
356.618	50.73
356.837	120.36
357.055	128.55
357.274	112.17
357.492	124.45
357.711	116.26
357.929	67.11
358.148	118.31
358.366	142.89
358.585	157.22
358.803	140.84
359.021	83.49
359.24	177.7
359.458	103.97
359.676	124.45
359.894	103.97
360.113	67.11
360.331	110.12
360.549	89.64
360.767	87.59
360.985	63.01
361.203	110.12
361.421	85.54
361.639	118.31
361.857	91.69
362.075	140.84
362.293	132.65
362.511	126.5
362.729	103.97
362.947	79.4
363.165	126.5
363.383	95.78
363.601	128.55
363.819	34.34
364.036	58.92
364.254	103.97
364.472	116.26
364.689	144.93
364.907	146.98
365.125	91.69
365.342	108.07
365.56	130.6
365.778	208.42
365.995	136.74
366.213	132.65
366.43	126.5
366.648	149.03
366.865	198.18
367.083	42.53
367.3	126.5
367.517	91.69
367.735	95.78
367.952	85.54
368.17	130.6
368.387	136.74
368.604	122.41
368.821	114.21
369.039	116.26
369.256	91.69
369.473	165.41
369.69	142.89
369.907	106.02
370.124	95.78
370.341	75.3
370.558	99.88
370.776	101.93
370.993	101.93
371.21	91.69
371.426	71.21
371.643	132.65
371.86	124.45
372.077	46.63
372.294	85.54
372.511	116.26
372.728	124.45
372.945	128.55
373.161	30.25
373.378	140.84
373.595	99.88
373.811	122.41
374.028	124.45
374.245	126.5
374.461	108.07
374.678	177.7
374.895	67.11
375.111	157.22
375.328	161.32
375.544	91.69
375.761	124.45
375.977	157.22
376.194	157.22
376.41	157.22
376.626	165.41
376.843	130.6
377.059	87.59
377.275	122.41
377.492	50.73
377.708	163.36
377.924	157.22
378.14	91.69
378.357	128.55
378.573	140.84
378.789	126.5
379.005	91.69
379.221	108.07
379.437	173.6
379.653	140.84
379.869	206.37
380.085	198.18
380.301	118.31
380.517	79.4
380.733	110.12
380.949	95.78
381.165	151.08
381.381	75.3
381.597	99.88
381.813	157.22
382.028	206.37
382.244	118.31
382.46	91.69
382.676	259.62
382.891	206.37
383.107	136.74
383.323	126.5
383.538	91.69
383.754	157.22
383.969	165.41
384.185	218.66
384.4	132.65
384.616	112.17
384.831	136.74
385.047	171.56
385.262	183.84
385.478	175.65
385.693	159.27
385.909	169.51
386.124	263.72
386.339	69.16
386.554	155.17
386.77	171.56
386.985	198.18
387.2	189.99
387.415	214.56
387.631	177.7
387.846	161.32
388.061	233
388.276	202.28
388.491	173.6
388.706	177.7
388.921	189.99
389.136	222.76
389.351	189.99
389.566	157.22
389.781	196.13
389.996	243.24
390.211	134.69
390.426	220.71
390.641	251.43
390.855	157.22
391.07	228.9
391.285	288.29
391.5	230.95
391.714	255.52
391.929	280.1
392.144	259.62
392.358	239.14
392.573	325.15
392.788	206.37
393.002	216.61
393.217	284.2
393.431	314.91
393.646	306.72
393.86	253.48
394.075	321.06
394.289	255.52
394.504	206.37
394.718	321.06
394.933	402.98
395.147	331.3
395.361	337.44
395.576	409.12
395.79	321.06
396.004	296.48
396.218	339.49
396.432	396.83
396.647	321.06
396.861	353.83
397.075	341.54
397.289	329.25
397.503	388.64
397.717	423.46
397.931	353.83
398.145	394.79
398.359	419.36
398.573	437.79
398.787	452.13
399.001	529.95
399.215	400.93
399.429	550.43
399.643	439.84
399.857	527.9
400.07	480.8
400.284	546.34
400.498	503.33
400.712	515.62
400.925	575.01
401.139	546.34
401.353	579.1
401.566	585.25
401.78	572.96
401.994	603.68
402.207	706.08
402.421	734.75
402.634	570.91
402.848	706.08
403.061	679.45
403.275	685.6
403.488	765.47
403.702	708.12
403.915	767.52
404.128	658.97
404.342	796.19
404.555	816.67
404.768	855.58
404.982	849.43
405.195	775.71
405.408	892.44
405.621	894.49
405.835	947.74
406.048	937.5
406.261	1017.37
406.474	1017.37
406.687	925.21
406.9	1046.04
407.113	953.88
407.326	1009.18
407.539	1007.13
407.752	1158.68
407.965	1082.9
408.178	1041.94
408.391	1160.73
408.604	1076.76
408.817	1148.44
409.029	1140.25
409.242	1160.73
409.455	1179.16
409.668	1230.36
409.881	1338.9
410.093	1330.71
410.306	1312.28
410.519	1383.95
410.731	1316.37
410.944	1312.28
411.157	1273.36
411.369	1422.87
411.582	1383.95
411.794	1373.71
412.007	1500.69
412.219	1584.66
412.432	1615.37
412.644	1629.71
412.857	1619.47
413.069	1568.27
413.281	1672.72
413.494	1480.21
413.706	1672.72
413.918	1613.33
414.131	1891.85
414.343	1687.05
414.555	1824.27
414.767	1766.92
414.979	1775.12
415.192	1795.6
415.404	1936.91
415.616	1832.46
415.828	1779.21
416.04	2045.45
416.252	1863.18
416.464	1865.23
416.676	1961.48
416.888	2051.59
417.1	1992.2
417.312	1945.1
417.524	1992.2
417.736	2074.12
417.948	2088.46
418.159	2094.6
418.371	1988.11
418.583	2096.65
418.795	2117.13
419.007	2178.57
419.218	2070.02
419.43	2190.85
419.642	2270.72
419.853	2356.74
420.065	2283.01
420.276	2248.2
420.488	2328.07
420.7	2278.92
420.911	2293.25
421.123	2266.63
421.334	2405.89
421.546	2235.91
421.757	2418.18
421.969	2248.2
422.18	2405.89
422.391	2483.71
422.603	2401.79
422.814	2479.62
423.025	2424.32
423.237	2409.99
423.448	2557.44
423.659	2582.02
423.87	2592.26
424.082	2582.02
424.293	2389.51
424.504	2463.23
424.715	2526.72
424.926	2622.98
425.137	2551.3
425.348	2639.36
425.559	2551.3
425.77	2682.37
425.981	2569.73
426.192	2618.88
426.403	2725.37
426.614	2532.86
426.825	2749.95
427.036	2807.29
427.247	2500.1
427.458	2887.16
427.668	2614.78
427.879	2549.25
428.09	2704.89
428.301	2723.33
428.511	2749.95
428.722	2756.09
428.933	2778.62
429.143	2704.89
429.354	2772.48
429.565	2778.62
429.775	2876.92
429.986	2747.9
430.196	2647.55
430.407	2807.29
430.617	2606.59
430.828	2745.85
431.038	2811.39
431.249	2856.44
431.459	2762.24
431.669	2801.15
431.88	2649.6
432.09	2774.53
432.3	2850.3
432.511	2846.2
432.721	2633.22
432.931	2942.46
433.141	2715.13
433.351	2635.26
433.562	2878.97
433.772	2827.77
433.982	2934.27
434.192	2792.96
434.402	2819.58
434.612	2672.13
434.822	2856.44
435.032	2829.82
435.242	2737.66
435.452	2881.02
435.662	2655.74
435.872	2805.24
436.082	2807.29
436.292	2518.53
436.502	2708.99
436.711	2962.94
436.921	2792.96
437.131	2721.28
437.341	2584.06
437.551	2803.2
437.76	2870.78
437.97	2717.18
438.18	2706.94
438.389	2610.69
438.599	2764.29
438.808	2770.43
439.018	2780.67
439.228	2766.33
439.437	2715.13
439.647	2670.08
439.856	2692.61
440.066	2661.89
440.275	2678.27
440.484	2784.76
440.694	2680.32
440.903	2729.47
441.113	2639.36
441.322	2696.7
441.531	2682.37
441.741	2696.7
441.95	2672.13
442.159	2665.98
442.368	2663.93
442.577	2723.33
442.787	2606.59
442.996	2704.89
443.205	2684.41
443.414	2657.79
443.623	2618.88
443.832	2680.32
444.041	2600.45
444.25	2831.87
444.459	2493.95
444.668	2565.63
444.877	2582.02
445.086	2487.81
445.295	2668.03
445.504	2631.17
445.713	2582.02
445.922	2579.97
446.13	2469.38
446.339	2436.61
446.548	2360.84
446.757	2430.47
446.965	2498.05
447.174	2536.96
447.383	2340.36
447.591	2520.58
447.8	2399.75
448.009	2510.34
448.217	2459.14
448.426	2639.36
448.634	2352.64
448.843	2575.87
449.051	2377.22
449.26	2639.36
449.468	2422.27
449.677	2506.24
449.885	2590.21
450.093	2543.1
450.302	2426.37
450.51	2559.49
450.719	2516.48
450.927	2532.86
451.135	2506.24
451.343	2469.38
451.552	2508.29
451.76	2532.86
451.968	2534.91
452.176	2467.33
452.384	2479.62
452.592	2592.26
452.8	2491.91
453.009	2489.86
453.217	2577.92
453.425	2516.48
453.633	2319.88
453.841	2457.09
454.049	2434.56
454.257	2582.02
454.464	2287.11
454.672	2444.8
454.88	2604.54
455.088	2510.34
455.296	2340.36
455.504	2401.79
455.711	2389.51
455.919	2528.77
456.127	2446.85
456.335	2577.92
456.542	2555.39
