Data from light_USB4E013581_00005.txt Node
Date: Wed May 08 15:04:40 EDT 2019
User: dh1006
Spectrometer: USB4E01358
Autoset integration time: false
Trigger mode: 4
Integration Time (sec): 2.925000E-2
Scans to average: 1
Electric dark correction enabled: true
Nonlinearity correction enabled: false
Boxcar width: 0
Stray light correction enabled: false
XAxis mode: Wavelengths
Stop averaging: false
Number of Pixels in Spectrum: 3648
>>>>>Begin Spectral Data<<<<<
176.727	-85.23
176.966	-85.23
177.205	-85.23
177.444	-56.56
177.683	43.8
177.922	80.66
178.161	54.03
178.4	37.65
178.638	-42.22
178.877	45.84
179.116	-27.88
179.355	78.61
179.593	41.75
179.832	29.46
180.071	111.38
180.309	54.03
180.548	-62.7
180.786	45.84
181.025	72.47
181.263	105.23
181.502	56.08
181.74	76.56
181.979	74.51
182.217	62.23
182.456	152.34
182.694	45.84
182.932	49.94
183.17	103.19
183.409	80.66
183.647	66.32
183.885	72.47
184.123	90.9
184.361	123.67
184.6	49.94
184.838	97.04
185.076	54.03
185.314	88.85
185.552	135.95
185.79	17.17
186.028	45.84
186.266	135.95
186.503	82.71
186.741	23.32
186.979	129.81
187.217	86.8
187.455	105.23
187.693	47.89
187.93	82.71
188.168	82.71
188.406	76.56
188.643	56.08
188.881	115.47
189.119	107.28
189.356	84.75
189.594	70.42
189.831	47.89
190.069	86.8
190.306	105.23
190.543	131.86
190.781	64.27
191.018	23.32
191.256	119.57
191.493	90.9
191.73	54.03
191.967	80.66
192.205	111.38
192.442	94.99
192.679	49.94
192.916	45.84
193.153	33.56
193.39	54.03
193.628	58.13
193.865	148.24
194.102	131.86
194.339	103.19
194.576	66.32
194.813	58.13
195.049	45.84
195.286	27.41
195.523	99.09
195.76	70.42
195.997	68.37
196.234	92.95
196.47	72.47
196.707	111.38
196.944	86.8
197.18	-7.4
197.417	111.38
197.654	51.99
197.89	70.42
198.127	94.99
198.363	54.03
198.6	76.56
198.836	168.72
199.073	84.75
199.309	66.32
199.546	41.75
199.782	113.43
200.018	111.38
200.255	119.57
200.491	131.86
200.727	62.23
200.963	62.23
201.199	90.9
201.436	127.76
201.672	54.03
201.908	62.23
202.144	129.81
202.38	78.61
202.616	94.99
202.852	135.95
203.088	144.15
203.324	62.23
203.56	82.71
203.796	99.09
204.032	37.65
204.268	82.71
204.503	23.32
204.739	105.23
204.975	62.23
205.211	150.29
205.446	74.51
205.682	70.42
205.918	144.15
206.153	119.57
206.389	107.28
206.625	62.23
206.86	92.95
207.096	103.19
207.331	97.04
207.567	135.95
207.802	115.47
208.037	113.43
208.273	97.04
208.508	152.34
208.744	86.8
208.979	88.85
209.214	105.23
209.449	21.27
209.685	97.04
209.92	127.76
210.155	131.86
210.39	127.76
210.625	62.23
210.86	140.05
211.095	78.61
211.33	135.95
211.565	148.24
211.8	2.84
212.035	125.71
212.27	62.23
212.505	13.08
212.74	156.43
212.975	56.08
213.21	111.38
213.444	88.85
213.679	101.14
213.914	45.84
214.149	70.42
214.383	107.28
214.618	107.28
214.853	13.08
215.087	127.76
215.322	103.19
215.556	119.57
215.791	107.28
216.025	135.95
216.26	113.43
216.494	152.34
216.729	49.94
216.963	74.51
217.197	74.51
217.432	82.71
217.666	72.47
217.9	113.43
218.135	45.84
218.369	94.99
218.603	99.09
218.837	86.8
219.071	51.99
219.306	76.56
219.54	123.67
219.774	62.23
220.008	66.32
220.242	94.99
220.476	37.65
220.71	92.95
220.944	99.09
221.178	58.13
221.411	82.71
221.645	62.23
221.879	111.38
222.113	138
222.347	13.08
222.58	86.8
222.814	78.61
223.048	138
223.281	135.95
223.515	31.51
223.749	74.51
223.982	70.42
224.216	111.38
224.449	103.19
224.683	133.91
224.916	92.95
225.15	123.67
225.383	86.8
225.617	117.52
225.85	94.99
226.083	15.12
226.317	47.89
226.55	58.13
226.783	31.51
227.016	105.23
227.25	113.43
227.483	62.23
227.716	72.47
227.949	76.56
228.182	56.08
228.415	131.86
228.648	127.76
228.881	49.94
229.114	131.86
229.347	94.99
229.58	8.98
229.813	103.19
230.046	209.68
230.279	144.15
230.512	94.99
230.745	156.43
230.977	72.47
231.21	76.56
231.443	94.99
231.675	135.95
231.908	156.43
232.141	60.18
232.373	117.52
232.606	58.13
232.839	90.9
233.071	49.94
233.304	119.57
233.536	181.01
233.769	127.76
234.001	84.75
234.233	45.84
234.466	72.47
234.698	74.51
234.93	88.85
235.163	107.28
235.395	113.43
235.627	158.48
235.86	88.85
236.092	148.24
236.324	133.91
236.556	111.38
236.788	58.13
237.02	86.8
237.252	78.61
237.484	127.76
237.716	135.95
237.948	43.8
238.18	66.32
238.412	92.95
238.644	37.65
238.876	70.42
239.108	127.76
239.34	17.17
239.571	21.27
239.803	70.42
240.035	43.8
240.267	129.81
240.498	88.85
240.73	168.72
240.962	35.6
241.193	64.27
241.425	90.9
241.656	78.61
241.888	97.04
242.119	84.75
242.351	88.85
242.582	148.24
242.814	27.41
243.045	66.32
243.277	127.76
243.508	80.66
243.739	80.66
243.971	109.33
244.202	115.47
244.433	140.05
244.664	49.94
244.896	129.81
245.127	88.85
245.358	113.43
245.589	115.47
245.82	33.56
246.051	107.28
246.282	29.46
246.513	138
246.744	51.99
246.975	142.1
247.206	99.09
247.437	138
247.668	97.04
247.899	45.84
248.129	103.19
248.36	29.46
248.591	84.75
248.822	70.42
249.052	88.85
249.283	135.95
249.514	103.19
249.744	101.14
249.975	94.99
250.206	148.24
250.436	86.8
250.667	97.04
250.897	90.9
251.128	82.71
251.358	135.95
251.589	80.66
251.819	29.46
252.049	80.66
252.28	160.53
252.51	105.23
252.74	115.47
252.971	88.85
253.201	99.09
253.431	97.04
253.661	111.38
253.891	82.71
254.121	47.89
254.352	129.81
254.582	62.23
254.812	88.85
255.042	58.13
255.272	94.99
255.502	90.9
255.732	8.98
255.962	164.63
256.192	70.42
256.421	78.61
256.651	56.08
256.881	90.9
257.111	72.47
257.341	172.82
257.57	97.04
257.8	78.61
258.03	54.03
258.259	123.67
258.489	80.66
258.719	62.23
258.948	111.38
259.178	82.71
259.407	166.67
259.637	88.85
259.866	82.71
260.096	54.03
260.325	111.38
260.555	56.08
260.784	64.27
261.013	138
261.243	123.67
261.472	140.05
261.701	111.38
261.931	129.81
262.16	64.27
262.389	160.53
262.618	86.8
262.847	86.8
263.076	107.28
263.305	148.24
263.535	2.84
263.764	70.42
263.993	33.56
264.222	72.47
264.451	90.9
264.679	135.95
264.908	105.23
265.137	103.19
265.366	144.15
265.595	37.65
265.824	68.37
266.053	101.14
266.281	99.09
266.51	86.8
266.739	152.34
266.967	74.51
267.196	88.85
267.425	111.38
267.653	127.76
267.882	117.52
268.11	54.03
268.339	72.47
268.567	129.81
268.796	86.8
269.024	135.95
269.253	97.04
269.481	97.04
269.709	94.99
269.938	105.23
270.166	88.85
270.394	88.85
270.623	60.18
270.851	54.03
271.079	41.75
271.307	94.99
271.535	125.71
271.764	74.51
271.992	86.8
272.22	97.04
272.448	123.67
272.676	176.91
272.904	88.85
273.132	25.36
273.36	127.76
273.588	54.03
273.816	133.91
274.043	78.61
274.271	115.47
274.499	92.95
274.727	70.42
274.955	51.99
275.182	62.23
275.41	162.58
275.638	187.15
275.866	41.75
276.093	101.14
276.321	70.42
276.548	84.75
276.776	97.04
277.003	99.09
277.231	58.13
277.458	80.66
277.686	62.23
277.913	41.75
278.141	62.23
278.368	41.75
278.595	90.9
278.823	103.19
279.05	181.01
279.277	62.23
279.505	119.57
279.732	99.09
279.959	117.52
280.186	123.67
280.413	64.27
280.641	123.67
280.868	164.63
281.095	70.42
281.322	111.38
281.549	84.75
281.776	82.71
282.003	135.95
282.23	105.23
282.457	33.56
282.683	72.47
282.91	41.75
283.137	138
283.364	138
283.591	70.42
283.818	58.13
284.044	72.47
284.271	76.56
284.498	113.43
284.724	119.57
284.951	82.71
285.178	119.57
285.404	127.76
285.631	156.43
285.857	58.13
286.084	90.9
286.31	119.57
286.537	97.04
286.763	103.19
286.99	70.42
287.216	123.67
287.442	92.95
287.669	146.19
287.895	156.43
288.121	97.04
288.347	152.34
288.574	111.38
288.8	56.08
289.026	107.28
289.252	131.86
289.478	140.05
289.704	88.85
289.931	123.67
290.157	131.86
290.383	129.81
290.609	80.66
290.835	144.15
291.06	133.91
291.286	135.95
291.512	-3.31
291.738	121.62
291.964	162.58
292.19	15.12
292.416	58.13
292.641	54.03
292.867	49.94
293.093	152.34
293.319	47.89
293.544	54.03
293.77	33.56
293.995	88.85
294.221	47.89
294.447	94.99
294.672	82.71
294.898	78.61
295.123	31.51
295.349	160.53
295.574	131.86
295.799	103.19
296.025	103.19
296.25	121.62
296.476	66.32
296.701	72.47
296.926	111.38
297.151	160.53
297.377	164.63
297.602	86.8
297.827	90.9
298.052	123.67
298.277	58.13
298.502	123.67
298.727	82.71
298.953	64.27
299.178	76.56
299.403	72.47
299.628	76.56
299.852	152.34
300.077	94.99
300.302	74.51
300.527	58.13
300.752	76.56
300.977	90.9
301.202	107.28
301.426	90.9
301.651	68.37
301.876	45.84
302.101	37.65
302.325	94.99
302.55	129.81
302.775	27.41
302.999	88.85
303.224	135.95
303.448	178.96
303.673	88.85
303.897	78.61
304.122	135.95
304.346	103.19
304.571	88.85
304.795	58.13
305.019	60.18
305.244	82.71
305.468	105.23
305.692	29.46
305.917	54.03
306.141	37.65
306.365	70.42
306.589	146.19
306.813	144.15
307.038	68.37
307.262	68.37
307.486	97.04
307.71	37.65
307.934	135.95
308.158	121.62
308.382	64.27
308.606	86.8
308.83	94.99
309.054	62.23
309.278	62.23
309.502	88.85
309.725	125.71
309.949	160.53
310.173	125.71
310.397	111.38
310.62	78.61
310.844	62.23
311.068	99.09
311.292	70.42
311.515	54.03
311.739	135.95
311.962	113.43
312.186	43.8
312.41	27.41
312.633	47.89
312.857	97.04
313.08	164.63
313.303	78.61
313.527	109.33
313.75	72.47
313.974	45.84
314.197	86.8
314.42	39.7
314.644	135.95
314.867	140.05
315.09	35.6
315.313	111.38
315.536	138
315.76	103.19
315.983	187.15
316.206	152.34
316.429	86.8
316.652	125.71
316.875	94.99
317.098	62.23
317.321	82.71
317.544	105.23
317.767	86.8
317.99	127.76
318.213	146.19
318.436	99.09
318.658	131.86
318.881	105.23
319.104	138
319.327	144.15
319.55	121.62
319.772	82.71
319.995	74.51
320.218	90.9
320.44	135.95
320.663	181.01
320.885	78.61
321.108	250.64
321.331	123.67
321.553	94.99
321.776	121.62
321.998	70.42
322.22	144.15
322.443	123.67
322.665	117.52
322.888	62.23
323.11	94.99
323.332	111.38
323.555	144.15
323.777	185.1
323.999	88.85
324.221	92.95
324.443	162.58
324.666	170.77
324.888	107.28
325.11	127.76
325.332	127.76
325.554	94.99
325.776	58.13
325.998	164.63
326.22	146.19
326.442	158.48
326.664	54.03
326.886	94.99
327.108	107.28
327.33	86.8
327.551	127.76
327.773	129.81
327.995	86.8
328.217	94.99
328.439	103.19
328.66	125.71
328.882	121.62
329.104	58.13
329.325	35.6
329.547	86.8
329.769	43.8
329.99	154.39
330.212	86.8
330.433	113.43
330.655	123.67
330.876	127.76
331.098	47.89
331.319	113.43
331.54	99.09
331.762	205.58
331.983	107.28
332.204	121.62
332.426	111.38
332.647	41.75
332.868	111.38
333.089	115.47
333.311	94.99
333.532	144.15
333.753	129.81
333.974	140.05
334.195	148.24
334.416	146.19
334.637	62.23
334.858	105.23
335.079	76.56
335.3	160.53
335.521	133.91
335.742	119.57
335.963	37.65
336.184	156.43
336.405	154.39
336.626	199.44
336.846	86.8
337.067	168.72
337.288	92.95
337.509	121.62
337.729	135.95
337.95	119.57
338.171	97.04
338.391	176.91
338.612	119.57
338.833	115.47
339.053	138
339.274	92.95
339.494	176.91
339.715	113.43
339.935	86.8
340.156	189.2
340.376	45.84
340.596	178.96
340.817	74.51
341.037	70.42
341.257	86.8
341.478	111.38
341.698	129.81
341.918	86.8
342.138	123.67
342.359	142.1
342.579	146.19
342.799	86.8
343.019	88.85
343.239	154.39
343.459	78.61
343.679	97.04
343.899	103.19
344.119	158.48
344.339	152.34
344.559	185.1
344.779	66.32
344.999	144.15
345.219	140.05
345.439	131.86
345.658	115.47
345.878	144.15
346.098	99.09
346.318	105.23
346.537	133.91
346.757	176.91
346.977	127.76
347.196	113.43
347.416	54.03
347.636	86.8
347.855	176.91
348.075	111.38
348.294	135.95
348.514	103.19
348.733	146.19
348.953	142.1
349.172	133.91
349.392	127.76
349.611	94.99
349.83	86.8
350.05	119.57
350.269	103.19
350.488	146.19
350.707	140.05
350.927	54.03
351.146	62.23
351.365	41.75
351.584	115.47
351.803	80.66
352.023	195.34
352.242	72.47
352.461	72.47
352.68	133.91
352.899	92.95
353.118	127.76
353.337	127.76
353.556	76.56
353.775	37.65
353.993	94.99
354.212	105.23
354.431	107.28
354.65	138
354.869	64.27
355.088	168.72
355.306	17.17
355.525	105.23
355.744	135.95
355.962	119.57
356.181	176.91
356.4	111.38
356.618	103.19
356.837	144.15
357.055	45.84
357.274	135.95
357.492	123.67
357.711	111.38
357.929	88.85
358.148	107.28
358.366	97.04
358.585	138
358.803	176.91
359.021	150.29
359.24	68.37
359.458	60.18
359.676	131.86
359.894	94.99
360.113	135.95
360.331	78.61
360.549	56.08
360.767	86.8
360.985	107.28
361.203	111.38
361.421	105.23
361.639	115.47
361.857	49.94
362.075	127.76
362.293	174.87
362.511	74.51
362.729	144.15
362.947	111.38
363.165	135.95
363.383	129.81
363.601	90.9
363.819	103.19
364.036	105.23
364.254	88.85
364.472	127.76
364.689	88.85
364.907	158.48
365.125	144.15
365.342	37.65
365.56	127.76
365.778	193.3
365.995	193.3
366.213	105.23
366.43	146.19
366.648	86.8
366.865	127.76
367.083	148.24
367.3	162.58
367.517	121.62
367.735	62.23
367.952	148.24
368.17	164.63
368.387	99.09
368.604	160.53
368.821	115.47
369.039	94.99
369.256	68.37
369.473	78.61
369.69	107.28
369.907	129.81
370.124	94.99
370.341	144.15
370.558	37.65
370.776	99.09
370.993	201.49
371.21	111.38
371.426	94.99
371.643	144.15
371.86	97.04
372.077	142.1
372.294	82.71
372.511	152.34
372.728	97.04
372.945	148.24
373.161	135.95
373.378	47.89
373.595	123.67
373.811	138
374.028	127.76
374.245	119.57
374.461	119.57
374.678	176.91
374.895	125.71
375.111	160.53
375.328	129.81
375.544	99.09
375.761	150.29
375.977	144.15
376.194	123.67
376.41	127.76
376.626	152.34
376.843	62.23
377.059	119.57
377.275	123.67
377.492	144.15
377.708	144.15
377.924	97.04
378.14	166.67
378.357	172.82
378.573	127.76
378.789	127.76
379.005	238.35
379.221	193.3
379.437	166.67
379.653	88.85
379.869	127.76
380.085	135.95
380.301	168.72
380.517	146.19
380.733	146.19
380.949	152.34
381.165	123.67
381.381	230.16
381.597	135.95
381.813	183.06
382.028	111.38
382.244	234.26
382.46	113.43
382.676	135.95
382.891	144.15
383.107	154.39
383.323	162.58
383.538	178.96
383.754	238.35
383.969	172.82
384.185	144.15
384.4	135.95
384.616	170.77
384.831	226.06
385.047	142.1
385.262	189.2
385.478	176.91
385.693	174.87
385.909	172.82
386.124	176.91
386.339	191.25
386.554	127.76
386.77	193.3
386.985	195.34
387.2	144.15
387.415	115.47
387.631	138
387.846	146.19
388.061	152.34
388.276	160.53
388.491	146.19
388.706	178.96
388.921	238.35
389.136	244.5
389.351	252.69
389.566	185.1
389.781	213.78
389.996	246.54
390.211	248.59
390.426	273.17
390.641	228.11
390.855	197.39
391.07	303.89
391.285	246.54
391.5	301.84
391.714	295.7
391.929	291.6
392.144	221.97
392.358	242.45
392.573	279.31
392.788	342.8
393.002	193.3
393.217	271.12
393.431	172.82
393.646	271.12
393.86	269.07
394.075	324.37
394.289	295.7
394.504	299.79
394.718	357.13
394.933	353.04
395.147	357.13
395.361	328.46
395.576	383.76
395.79	373.52
396.004	363.28
396.218	357.13
396.432	328.46
396.647	373.52
396.861	305.94
397.075	457.48
397.289	387.85
397.503	381.71
397.717	389.9
397.931	447.24
398.145	377.61
398.359	439.05
398.573	437.01
398.787	535.31
399.001	424.72
399.215	537.36
399.429	459.53
399.643	459.53
399.857	512.78
400.07	586.51
400.284	541.45
400.498	541.45
400.712	615.18
400.925	623.37
401.139	451.34
401.353	606.99
401.566	584.46
401.78	656.14
401.994	635.66
402.207	635.66
402.421	621.32
402.634	768.78
402.848	656.14
403.061	672.52
403.275	758.54
403.488	766.73
403.702	701.19
403.915	748.3
404.128	815.88
404.342	826.12
404.555	729.86
404.768	819.98
404.982	766.73
405.195	856.84
405.408	875.27
405.621	938.76
405.835	979.72
406.048	998.15
406.261	910.09
406.474	905.99
406.687	975.62
406.9	930.57
407.113	934.66
407.326	1000.2
407.539	987.91
407.752	1106.69
407.965	1047.3
408.178	1198.85
408.391	1159.94
408.604	1114.88
408.817	1168.13
409.029	1192.71
409.242	1159.94
409.455	1227.52
409.668	1331.97
409.881	1424.13
410.093	1348.35
410.306	1364.73
410.519	1340.16
410.731	1317.63
410.944	1374.97
411.157	1282.82
411.369	1487.61
411.582	1389.31
411.794	1600.25
412.007	1544.96
412.219	1487.61
412.432	1540.86
412.644	1651.45
412.857	1569.53
413.069	1639.16
413.281	1594.11
413.494	1551.1
413.706	1706.75
413.918	1663.74
414.131	1813.24
414.343	1731.32
414.555	1762.04
414.767	1807.1
414.979	1792.76
415.192	1768.18
415.404	2013.94
415.616	1831.67
415.828	1841.91
416.04	1907.45
416.252	1848.06
416.464	1852.15
416.676	1942.26
416.888	1927.93
417.1	1972.98
417.312	2052.85
417.524	1999.61
417.736	1987.32
417.948	2163.44
418.159	2091.76
418.371	2085.62
418.583	2075.38
418.795	2147.06
419.007	2325.23
419.218	2091.76
419.43	2069.24
419.642	2226.93
419.853	2306.8
420.065	2257.65
420.276	2310.9
420.488	2382.58
420.7	2372.34
420.911	2331.38
421.123	2380.53
421.334	2228.98
421.546	2437.87
421.757	2392.82
421.969	2364.14
422.18	2306.8
422.391	2308.85
422.603	2353.9
422.814	2448.11
423.025	2599.66
423.237	2437.87
423.448	2497.26
423.659	2611.95
423.87	2630.38
424.082	2697.96
424.293	2579.18
424.504	2611.95
424.715	2446.06
424.926	2577.13
425.137	2466.54
425.348	2712.3
425.559	2630.38
425.77	2781.93
425.981	2470.64
426.192	2708.2
426.403	2687.72
426.614	2695.91
426.825	2675.43
427.036	2603.76
427.247	2493.17
427.458	2749.16
427.668	2609.9
427.879	2740.97
428.09	2792.17
428.301	2847.46
428.511	2691.82
428.722	2614
428.933	2851.56
429.143	2620.14
429.354	2642.67
429.565	2956.01
429.775	2818.79
429.986	2822.89
430.196	2802.41
430.407	2843.37
430.617	2675.43
430.828	2693.87
431.038	2790.12
431.249	2779.88
431.459	2859.75
431.669	2636.52
431.88	2835.18
432.09	2794.22
432.3	2700.01
432.511	2831.08
432.721	2781.93
432.931	2884.33
433.141	2618.09
433.351	2646.76
433.562	2910.95
433.772	2929.38
433.982	2923.24
434.192	2691.82
434.402	2802.41
434.612	2822.89
434.822	2853.61
435.032	2740.97
435.242	2771.69
435.452	2863.85
435.662	2728.68
435.872	2820.84
436.082	2849.51
436.292	2695.91
436.502	2677.48
436.711	2831.08
436.921	2704.11
437.131	2896.62
437.341	2601.71
437.551	2888.42
437.76	2835.18
437.97	2781.93
438.18	2687.72
438.389	2622.19
438.599	2792.17
438.808	2812.65
439.018	2702.06
439.228	2812.65
439.437	2675.43
439.647	2718.44
439.856	2732.78
440.066	2632.43
440.275	2732.78
440.484	2781.93
440.694	2777.83
440.903	2745.07
441.113	2620.14
441.322	2734.83
441.531	2794.22
441.741	2806.5
441.95	2562.8
442.159	2857.7
442.368	2720.49
442.577	2669.29
442.787	2611.95
442.996	2808.55
443.205	2626.28
443.414	2808.55
443.623	2732.78
443.832	2659.05
444.041	2745.07
444.25	2728.68
444.459	2546.41
444.668	2640.62
444.877	2609.9
445.086	2587.37
445.295	2654.96
445.504	2667.24
445.713	2544.36
445.922	2675.43
446.13	2499.31
446.339	2527.98
446.548	2462.45
446.757	2484.97
446.965	2351.86
447.174	2644.72
447.383	2550.51
447.591	2560.75
447.8	2243.31
448.009	2544.36
448.217	2446.06
448.426	2509.55
448.634	2527.98
448.843	2489.07
449.051	2415.34
449.26	2589.42
449.468	2474.73
449.677	2454.25
449.885	2593.52
450.093	2478.83
450.302	2474.73
450.51	2495.21
450.719	2532.08
450.927	2482.93
451.135	2589.42
451.343	2466.54
451.552	2511.6
451.76	2351.86
451.968	2437.87
452.176	2474.73
452.384	2511.6
452.592	2511.6
452.8	2433.77
453.009	2560.75
453.217	2546.41
453.425	2519.79
453.633	2532.08
453.841	2540.27
454.049	2562.8
454.257	2527.98
454.464	2296.56
454.672	2542.32
454.88	2437.87
455.088	2501.36
455.296	2415.34
455.504	2452.21
455.711	2474.73
455.919	2589.42
456.127	2468.59
