Data from light_USB4E013581_00010.txt Node
Date: Wed May 08 15:04:41 EDT 2019
User: dh1006
Spectrometer: USB4E01358
Autoset integration time: false
Trigger mode: 4
Integration Time (sec): 2.925000E-2
Scans to average: 1
Electric dark correction enabled: true
Nonlinearity correction enabled: false
Boxcar width: 0
Stray light correction enabled: false
XAxis mode: Wavelengths
Stop averaging: false
Number of Pixels in Spectrum: 3648
>>>>>Begin Spectral Data<<<<<
176.727	-33.24
176.966	-33.24
177.205	-33.24
177.444	-14.81
177.683	-55.77
177.922	30.25
178.161	-33.24
178.4	13.86
178.638	71.21
178.877	60.97
179.116	-23
179.355	50.73
179.593	-0.47
179.832	20.01
180.071	-23
180.309	67.11
180.548	-45.53
180.786	3.62
181.025	17.96
181.263	99.88
181.502	149.03
181.74	118.31
181.979	93.73
182.217	91.69
182.456	140.84
182.694	95.78
182.932	93.73
183.17	15.91
183.409	65.06
183.647	120.36
183.885	69.16
184.123	54.82
184.361	3.62
184.6	32.29
184.838	34.34
185.076	95.78
185.314	138.79
185.552	44.58
185.79	73.25
186.028	58.92
186.266	58.92
186.503	93.73
186.741	69.16
186.979	42.53
187.217	52.77
187.455	58.92
187.693	26.15
187.93	83.49
188.168	99.88
188.406	24.1
188.643	58.92
188.881	60.97
189.119	118.31
189.356	118.31
189.594	11.82
189.831	63.01
190.069	58.92
190.306	5.67
190.543	77.35
190.781	69.16
191.018	46.63
191.256	58.92
191.493	85.54
191.73	79.4
191.967	87.59
192.205	75.3
192.442	79.4
192.679	93.73
192.916	87.59
193.153	114.21
193.39	42.53
193.628	112.17
193.865	128.55
194.102	67.11
194.339	85.54
194.576	83.49
194.813	110.12
195.049	71.21
195.286	50.73
195.523	50.73
195.76	108.07
195.997	83.49
196.234	50.73
196.47	58.92
196.707	56.87
196.944	101.93
197.18	-14.81
197.417	7.72
197.654	91.69
197.89	77.35
198.127	118.31
198.363	65.06
198.6	108.07
198.836	73.25
199.073	87.59
199.309	36.39
199.546	50.73
199.782	-18.9
200.018	52.77
200.255	46.63
200.491	169.51
200.727	110.12
200.963	69.16
201.199	110.12
201.436	9.77
201.672	26.15
201.908	97.83
202.144	71.21
202.38	-18.9
202.616	93.73
202.852	103.97
203.088	112.17
203.324	93.73
203.56	60.97
203.796	99.88
204.032	91.69
204.268	69.16
204.503	83.49
204.739	112.17
204.975	77.35
205.211	75.3
205.446	50.73
205.682	116.26
205.918	120.36
206.153	99.88
206.389	9.77
206.625	89.64
206.86	69.16
207.096	99.88
207.331	67.11
207.567	44.58
207.802	93.73
208.037	77.35
208.273	108.07
208.508	181.8
208.744	136.74
208.979	91.69
209.214	69.16
209.449	13.86
209.685	149.03
209.92	58.92
210.155	52.77
210.39	52.77
210.625	1.58
210.86	63.01
211.095	95.78
211.33	77.35
211.565	-8.66
211.8	63.01
212.035	83.49
212.27	132.65
212.505	97.83
212.74	77.35
212.975	60.97
213.21	58.92
213.444	26.15
213.679	120.36
213.914	46.63
214.149	46.63
214.383	40.49
214.618	91.69
214.853	44.58
215.087	130.6
215.322	60.97
215.556	126.5
215.791	60.97
216.025	126.5
216.26	50.73
216.494	5.67
216.729	95.78
216.963	40.49
217.197	65.06
217.432	79.4
217.666	87.59
217.9	118.31
218.135	65.06
218.369	138.79
218.603	58.92
218.837	85.54
219.071	79.4
219.306	128.55
219.54	124.45
219.774	99.88
220.008	52.77
220.242	50.73
220.476	50.73
220.71	101.93
220.944	58.92
221.178	112.17
221.411	97.83
221.645	63.01
221.879	54.82
222.113	116.26
222.347	28.2
222.58	69.16
222.814	91.69
223.048	110.12
223.281	83.49
223.515	77.35
223.749	42.53
223.982	93.73
224.216	83.49
224.449	28.2
224.683	17.96
224.916	54.82
225.15	93.73
225.383	38.44
225.617	132.65
225.85	73.25
226.083	91.69
226.317	116.26
226.55	52.77
226.783	128.55
227.016	42.53
227.25	-39.38
227.483	5.67
227.716	142.89
227.949	79.4
228.182	26.15
228.415	50.73
228.648	-2.52
228.881	56.87
229.114	77.35
229.347	79.4
229.58	50.73
229.813	89.64
230.046	116.26
230.279	99.88
230.512	75.3
230.745	116.26
230.977	116.26
231.21	144.93
231.443	144.93
231.675	52.77
231.908	46.63
232.141	132.65
232.373	146.98
232.606	114.21
232.839	91.69
233.071	116.26
233.304	5.67
233.536	95.78
233.769	177.7
234.001	93.73
234.233	83.49
234.466	112.17
234.698	108.07
234.93	67.11
235.163	116.26
235.395	71.21
235.627	108.07
235.86	77.35
236.092	11.82
236.324	140.84
236.556	60.97
236.788	69.16
237.02	75.3
237.252	114.21
237.484	58.92
237.716	36.39
237.948	79.4
238.18	67.11
238.412	132.65
238.644	91.69
238.876	87.59
239.108	85.54
239.34	5.67
239.571	103.97
239.803	91.69
240.035	60.97
240.267	93.73
240.498	97.83
240.73	116.26
240.962	46.63
241.193	75.3
241.425	89.64
241.656	71.21
241.888	77.35
242.119	87.59
242.351	79.4
242.582	106.02
242.814	58.92
243.045	114.21
243.277	54.82
243.508	67.11
243.739	77.35
243.971	93.73
244.202	175.65
244.433	91.69
244.664	58.92
244.896	165.41
245.127	67.11
245.358	91.69
245.589	65.06
245.82	34.34
246.051	136.74
246.282	116.26
246.513	83.49
246.744	110.12
246.975	60.97
247.206	75.3
247.437	79.4
247.668	63.01
247.899	73.25
248.129	116.26
248.36	50.73
248.591	132.65
248.822	99.88
249.052	175.65
249.283	130.6
249.514	79.4
249.744	-31.19
249.975	157.22
250.206	28.2
250.436	34.34
250.667	42.53
250.897	126.5
251.128	91.69
251.358	110.12
251.589	67.11
251.819	118.31
252.049	126.5
252.28	42.53
252.51	114.21
252.74	75.3
252.971	42.53
253.201	-4.57
253.431	42.53
253.661	42.53
253.891	79.4
254.121	77.35
254.352	103.97
254.582	50.73
254.812	24.1
255.042	44.58
255.272	69.16
255.502	46.63
255.732	140.84
255.962	106.02
256.192	38.44
256.421	63.01
256.651	-12.76
256.881	87.59
257.111	87.59
257.341	17.96
257.57	101.93
257.8	38.44
258.03	1.58
258.259	99.88
258.489	69.16
258.719	75.3
258.948	85.54
259.178	124.45
259.407	58.92
259.637	99.88
259.866	58.92
260.096	65.06
260.325	69.16
260.555	110.12
260.784	87.59
261.013	52.77
261.243	52.77
261.472	116.26
261.701	165.41
261.931	138.79
262.16	52.77
262.389	52.77
262.618	63.01
262.847	73.25
263.076	69.16
263.305	163.36
263.535	116.26
263.764	54.82
263.993	75.3
264.222	75.3
264.451	58.92
264.679	60.97
264.908	60.97
265.137	58.92
265.366	116.26
265.595	79.4
265.824	87.59
266.053	9.77
266.281	60.97
266.51	52.77
266.739	28.2
266.967	93.73
267.196	118.31
267.425	87.59
267.653	26.15
267.882	103.97
268.11	155.17
268.339	20.01
268.567	83.49
268.796	-6.62
269.024	77.35
269.253	36.39
269.481	103.97
269.709	161.32
269.938	38.44
270.166	69.16
270.394	63.01
270.623	185.89
270.851	20.01
271.079	157.22
271.307	99.88
271.535	42.53
271.764	91.69
271.992	91.69
272.22	124.45
272.448	116.26
272.676	140.84
272.904	79.4
273.132	97.83
273.36	79.4
273.588	116.26
273.816	56.87
274.043	81.45
274.271	65.06
274.499	112.17
274.727	52.77
274.955	149.03
275.182	149.03
275.41	67.11
275.638	85.54
275.866	167.46
276.093	165.41
276.321	126.5
276.548	87.59
276.776	30.25
277.003	134.69
277.231	69.16
277.458	73.25
277.686	83.49
277.913	7.72
278.141	136.74
278.368	22.06
278.595	67.11
278.823	110.12
279.05	167.46
279.277	63.01
279.505	101.93
279.732	34.34
279.959	40.49
280.186	71.21
280.413	89.64
280.641	42.53
280.868	71.21
281.095	46.63
281.322	108.07
281.549	60.97
281.776	116.26
282.003	83.49
282.23	40.49
282.457	136.74
282.683	112.17
282.91	75.3
283.137	-61.91
283.364	36.39
283.591	87.59
283.818	153.13
284.044	24.1
284.271	77.35
284.498	91.69
284.724	77.35
284.951	46.63
285.178	146.98
285.404	73.25
285.631	28.2
285.857	140.84
286.084	155.17
286.31	97.83
286.537	65.06
286.763	75.3
286.99	124.45
287.216	83.49
287.442	71.21
287.669	63.01
287.895	99.88
288.121	142.89
288.347	75.3
288.574	-0.47
288.8	128.55
289.026	116.26
289.252	79.4
289.478	192.04
289.704	93.73
289.931	75.3
290.157	58.92
290.383	46.63
290.609	136.74
290.835	73.25
291.06	71.21
291.286	99.88
291.512	173.6
291.738	140.84
291.964	83.49
292.19	54.82
292.416	52.77
292.641	83.49
292.867	75.3
293.093	79.4
293.319	93.73
293.544	30.25
293.77	77.35
293.995	89.64
294.221	83.49
294.447	63.01
294.672	114.21
294.898	91.69
295.123	120.36
295.349	99.88
295.574	67.11
295.799	87.59
296.025	83.49
296.25	149.03
296.476	95.78
296.701	142.89
296.926	87.59
297.151	165.41
297.377	124.45
297.602	87.59
297.827	93.73
298.052	56.87
298.277	116.26
298.502	71.21
298.727	83.49
298.953	52.77
299.178	124.45
299.403	79.4
299.628	69.16
299.852	185.89
300.077	108.07
300.302	89.64
300.527	124.45
300.752	138.79
300.977	108.07
301.202	71.21
301.426	87.59
301.651	75.3
301.876	50.73
302.101	110.12
302.325	116.26
302.55	103.97
302.775	91.69
302.999	77.35
303.224	83.49
303.448	124.45
303.673	120.36
303.897	112.17
304.122	136.74
304.346	99.88
304.571	50.73
304.795	79.4
305.019	77.35
305.244	93.73
305.468	67.11
305.692	42.53
305.917	91.69
306.141	20.01
306.365	67.11
306.589	116.26
306.813	87.59
307.038	157.22
307.262	126.5
307.486	144.93
307.71	91.69
307.934	99.88
308.158	63.01
308.382	69.16
308.606	110.12
308.83	177.7
309.054	1.58
309.278	101.93
309.502	26.15
309.725	183.84
309.949	83.49
310.173	108.07
310.397	40.49
310.62	75.3
310.844	110.12
311.068	118.31
311.292	63.01
311.515	128.55
311.739	58.92
311.962	126.5
312.186	83.49
312.41	110.12
312.633	46.63
312.857	93.73
313.08	134.69
313.303	32.29
313.527	91.69
313.75	118.31
313.974	120.36
314.197	3.62
314.42	134.69
314.644	63.01
314.867	60.97
315.09	103.97
315.313	28.2
315.536	75.3
315.76	42.53
315.983	128.55
316.206	140.84
316.429	118.31
316.652	75.3
316.875	52.77
317.098	69.16
317.321	52.77
317.544	134.69
317.767	91.69
317.99	75.3
318.213	116.26
318.436	99.88
318.658	101.93
318.881	63.01
319.104	20.01
319.327	124.45
319.55	87.59
319.772	124.45
319.995	50.73
320.218	146.98
320.44	134.69
320.663	136.74
320.885	157.22
321.108	146.98
321.331	116.26
321.553	132.65
321.776	91.69
321.998	1.58
322.22	120.36
322.443	175.65
322.665	30.25
322.888	69.16
323.11	77.35
323.332	108.07
323.555	34.34
323.777	120.36
323.999	44.58
324.221	177.7
324.443	71.21
324.666	-25.05
324.888	93.73
325.11	112.17
325.332	-6.62
325.554	116.26
325.776	58.92
325.998	110.12
326.22	118.31
326.442	116.26
326.664	54.82
326.886	99.88
327.108	7.72
327.33	91.69
327.551	58.92
327.773	124.45
327.995	60.97
328.217	136.74
328.439	83.49
328.66	67.11
328.882	112.17
329.104	63.01
329.325	32.29
329.547	220.71
329.769	116.26
329.99	116.26
330.212	50.73
330.433	134.69
330.655	110.12
330.876	63.01
331.098	9.77
331.319	52.77
331.54	99.88
331.762	75.3
331.983	99.88
332.204	118.31
332.426	77.35
332.647	116.26
332.868	63.01
333.089	69.16
333.311	120.36
333.532	153.13
333.753	54.82
333.974	93.73
334.195	69.16
334.416	91.69
334.637	118.31
334.858	157.22
335.079	110.12
335.3	120.36
335.521	122.41
335.742	101.93
335.963	116.26
336.184	106.02
336.405	83.49
336.626	87.59
336.846	151.08
337.067	108.07
337.288	-2.52
337.509	99.88
337.729	151.08
337.95	5.67
338.171	87.59
338.391	79.4
338.612	134.69
338.833	140.84
339.053	116.26
339.274	36.39
339.494	67.11
339.715	60.97
339.935	42.53
340.156	159.27
340.376	149.03
340.596	167.46
340.817	108.07
341.037	159.27
341.257	44.58
341.478	28.2
341.698	108.07
341.918	118.31
342.138	58.92
342.359	134.69
342.579	112.17
342.799	103.97
343.019	50.73
343.239	175.65
343.459	91.69
343.679	122.41
343.899	99.88
344.119	101.93
344.339	75.3
344.559	124.45
344.779	75.3
344.999	124.45
345.219	46.63
345.439	118.31
345.658	161.32
345.878	91.69
346.098	132.65
346.318	185.89
346.537	83.49
346.757	95.78
346.977	126.5
347.196	73.25
347.416	38.44
347.636	157.22
347.855	124.45
348.075	67.11
348.294	128.55
348.514	101.93
348.733	91.69
348.953	95.78
349.172	60.97
349.392	42.53
349.611	83.49
349.83	52.77
350.05	106.02
350.269	91.69
350.488	101.93
350.707	103.97
350.927	103.97
351.146	44.58
351.365	91.69
351.584	144.93
351.803	124.45
352.023	153.13
352.242	71.21
352.461	99.88
352.68	116.26
352.899	32.29
353.118	194.08
353.337	60.97
353.556	71.21
353.775	101.93
353.993	118.31
354.212	87.59
354.431	146.98
354.65	95.78
354.869	69.16
355.088	67.11
355.306	91.69
355.525	85.54
355.744	-14.81
355.962	126.5
356.181	108.07
356.4	91.69
356.618	93.73
356.837	126.5
357.055	79.4
357.274	144.93
357.492	108.07
357.711	138.79
357.929	87.59
358.148	153.13
358.366	128.55
358.585	101.93
358.803	132.65
359.021	173.6
359.24	149.03
359.458	134.69
359.676	95.78
359.894	95.78
360.113	36.39
360.331	110.12
360.549	46.63
360.767	63.01
360.985	124.45
361.203	87.59
361.421	101.93
361.639	118.31
361.857	99.88
362.075	128.55
362.293	124.45
362.511	132.65
362.729	126.5
362.947	157.22
363.165	54.82
363.383	132.65
363.601	165.41
363.819	63.01
364.036	124.45
364.254	71.21
364.472	124.45
364.689	173.6
364.907	87.59
365.125	91.69
365.342	99.88
365.56	142.89
365.778	165.41
365.995	44.58
366.213	144.93
366.43	50.73
366.648	26.15
366.865	138.79
367.083	67.11
367.3	110.12
367.517	144.93
367.735	167.46
367.952	99.88
368.17	194.08
368.387	155.17
368.604	138.79
368.821	134.69
369.039	118.31
369.256	132.65
369.473	116.26
369.69	206.37
369.907	126.5
370.124	69.16
370.341	48.68
370.558	165.41
370.776	128.55
370.993	124.45
371.21	134.69
371.426	149.03
371.643	60.97
371.86	69.16
372.077	103.97
372.294	173.6
372.511	149.03
372.728	120.36
372.945	83.49
373.161	118.31
373.378	118.31
373.595	114.21
373.811	132.65
374.028	95.78
374.245	163.36
374.461	75.3
374.678	169.51
374.895	157.22
375.111	95.78
375.328	75.3
375.544	136.74
375.761	112.17
375.977	140.84
376.194	58.92
376.41	169.51
376.626	153.13
376.843	91.69
377.059	183.84
377.275	153.13
377.492	142.89
377.708	120.36
377.924	116.26
378.14	185.89
378.357	192.04
378.573	175.65
378.789	83.49
379.005	181.8
379.221	79.4
379.437	126.5
379.653	42.53
379.869	71.21
380.085	132.65
380.301	116.26
380.517	165.41
380.733	146.98
380.949	192.04
381.165	140.84
381.381	124.45
381.597	93.73
381.813	189.99
382.028	124.45
382.244	224.8
382.46	173.6
382.676	159.27
382.891	149.03
383.107	114.21
383.323	233
383.538	173.6
383.754	208.42
383.969	116.26
384.185	157.22
384.4	120.36
384.616	189.99
384.831	138.79
385.047	237.09
385.262	187.94
385.478	181.8
385.693	159.27
385.909	167.46
386.124	198.18
386.339	235.04
386.554	177.7
386.77	189.99
386.985	114.21
387.2	189.99
387.415	206.37
387.631	167.46
387.846	237.09
388.061	159.27
388.276	120.36
388.491	157.22
388.706	161.32
388.921	239.14
389.136	251.43
389.351	173.6
389.566	187.94
389.781	230.95
389.996	239.14
390.211	216.61
390.426	142.89
390.641	255.52
390.855	181.8
391.07	216.61
391.285	251.43
391.5	280.1
391.714	222.76
391.929	239.14
392.144	206.37
392.358	247.33
392.573	263.72
392.788	230.95
393.002	257.57
393.217	335.39
393.431	280.1
393.646	259.62
393.86	261.67
394.075	284.2
394.289	243.24
394.504	253.48
394.718	304.67
394.933	370.21
395.147	325.15
395.361	388.64
395.576	333.35
395.79	349.73
396.004	323.11
396.218	388.64
396.432	370.21
396.647	386.59
396.861	329.25
397.075	368.16
397.289	380.45
397.503	415.27
397.717	378.4
397.931	472.61
398.145	368.16
398.359	468.51
398.573	484.9
398.787	425.5
399.001	513.57
399.215	460.32
399.429	525.86
399.643	503.33
399.857	452.13
400.07	517.66
400.284	521.76
400.498	476.7
400.712	462.37
400.925	640.54
401.139	536.1
401.353	493.09
401.566	638.49
401.78	534.05
401.994	579.1
402.207	593.44
402.421	642.59
402.634	669.21
402.848	689.69
403.061	699.93
403.275	663.07
403.488	691.74
403.702	706.08
403.915	740.89
404.128	831
404.342	699.93
404.555	714.27
404.768	816.67
404.982	861.72
405.195	857.63
405.408	824.86
405.621	933.4
405.835	912.92
406.048	902.68
406.261	839.19
406.474	886.3
406.687	927.26
406.9	1027.61
407.113	927.26
407.326	992.79
407.539	1015.32
407.752	1142.29
407.965	1056.28
408.178	1087
408.391	1058.33
408.604	1136.15
408.817	1150.49
409.029	1205.78
409.242	1168.92
409.455	1259.03
409.668	1213.97
409.881	1381.91
410.093	1322.52
410.306	1271.32
410.519	1306.13
410.731	1349.14
410.944	1377.81
411.157	1375.76
411.369	1459.73
411.582	1400.34
411.794	1605.13
412.007	1418.77
412.219	1570.32
412.432	1449.49
412.644	1527.31
412.857	1529.36
413.069	1738.25
413.281	1607.18
413.494	1570.32
413.706	1639.95
413.918	1668.62
414.131	1740.3
414.343	1754.64
414.555	1738.25
414.767	1803.79
414.979	1672.72
415.192	1801.74
415.404	1961.48
415.616	1873.42
415.828	1869.32
416.04	1840.65
416.252	1762.83
416.464	1934.86
416.676	1879.56
416.888	2098.7
417.1	2084.36
417.312	1992.2
417.524	1961.48
417.736	1953.29
417.948	1973.77
418.159	2237.96
418.371	2063.88
418.583	2131.46
418.795	2078.22
419.007	2123.27
419.218	2117.13
419.43	2205.19
419.642	2258.44
419.853	2248.2
420.065	2217.48
420.276	2182.66
420.488	2444.8
420.7	2332.16
420.911	2283.01
421.123	2354.69
421.334	2237.96
421.546	2395.65
421.757	2242.05
421.969	2332.16
422.18	2307.59
422.391	2450.95
422.603	2496
422.814	2424.32
423.025	2426.37
423.237	2651.65
423.448	2444.8
423.659	2530.82
423.87	2541.06
424.082	2598.4
424.293	2547.2
424.504	2604.54
424.715	2481.67
424.926	2694.65
425.137	2553.34
425.348	2672.13
425.559	2655.74
425.77	2657.79
425.981	2655.74
426.192	2641.41
426.403	2799.1
426.614	2647.55
426.825	2838.01
427.036	2713.09
427.247	2561.54
427.458	2768.38
427.668	2633.22
427.879	2727.42
428.09	2639.36
428.301	2713.09
428.511	2708.99
428.722	2747.9
428.933	2831.87
429.143	2586.11
429.354	2663.93
429.565	2964.99
429.775	2797.05
429.986	2733.57
430.196	2696.7
430.407	2725.37
430.617	2649.6
430.828	2721.28
431.038	2821.63
431.249	2901.5
431.459	2733.57
431.669	2749.95
431.88	2676.22
432.09	2704.89
432.3	2891.26
432.511	2749.95
432.721	2786.81
432.931	2903.55
433.141	2756.09
433.351	2731.52
433.562	2975.23
433.772	2907.64
433.982	2811.39
434.192	2803.2
434.402	2770.43
434.612	2795
434.822	2827.77
435.032	2854.4
435.242	2762.24
435.452	2813.44
435.662	2676.22
435.872	2778.62
436.082	2762.24
436.292	2639.36
436.502	2674.17
436.711	2827.77
436.921	2723.33
437.131	2813.44
437.341	2647.55
437.551	2737.66
437.76	2643.46
437.97	2682.37
438.18	2659.84
438.389	2651.65
438.599	2582.02
438.808	2811.39
439.018	2745.85
439.228	2768.38
439.437	2704.89
439.647	2588.16
439.856	2672.13
440.066	2610.69
440.275	2700.8
440.484	2715.13
440.694	2635.26
440.903	2696.7
441.113	2600.45
441.322	2651.65
441.531	2592.26
441.741	2815.48
441.95	2584.06
442.159	2655.74
442.368	2749.95
442.577	2723.33
442.787	2426.37
442.996	2676.22
443.205	2762.24
443.414	2723.33
443.623	2592.26
443.832	2631.17
444.041	2737.66
444.25	2686.46
444.459	2602.5
444.668	2403.84
444.877	2672.13
445.086	2487.81
445.295	2455.04
445.504	2684.41
445.713	2557.44
445.922	2680.32
446.13	2545.15
446.339	2467.33
446.548	2452.99
446.757	2641.41
446.965	2496
447.174	2606.59
447.383	2475.52
447.591	2387.46
447.8	2389.51
448.009	2475.52
448.217	2477.57
448.426	2620.93
448.634	2334.21
448.843	2551.3
449.051	2346.5
449.26	2459.14
449.468	2526.72
449.677	2526.72
449.885	2463.23
450.093	2606.59
450.302	2469.38
450.51	2622.98
450.719	2360.84
450.927	2446.85
451.135	2567.68
451.343	2428.42
451.552	2328.07
451.76	2405.89
451.968	2493.95
452.176	2520.58
452.384	2381.32
452.592	2491.91
452.8	2516.48
453.009	2553.34
453.217	2524.67
453.425	2393.6
453.633	2428.42
453.841	2524.67
454.049	2493.95
454.257	2565.63
454.464	2346.5
454.672	2502.15
454.88	2469.38
455.088	2524.67
455.296	2412.03
455.504	2504.19
455.711	2409.99
455.919	2590.21
456.127	2432.51
456.335	2551.3
456.542	2436.61
456.75	2528.77
456.958	2467.33
457.165	2551.3
