Data from light_USB4E013581_00007.txt Node
Date: Wed May 08 15:04:40 EDT 2019
User: dh1006
Spectrometer: USB4E01358
Autoset integration time: false
Trigger mode: 4
Integration Time (sec): 2.925000E-2
Scans to average: 1
Electric dark correction enabled: true
Nonlinearity correction enabled: false
Boxcar width: 0
Stray light correction enabled: false
XAxis mode: Wavelengths
Stop averaging: false
Number of Pixels in Spectrum: 3648
>>>>>Begin Spectral Data<<<<<
176.727	-8.19
176.966	-8.19
177.205	-8.19
177.444	-55.3
177.683	-102.4
177.922	45.06
178.161	59.39
178.4	-16.38
178.638	24.58
178.877	20.48
179.116	16.38
179.355	22.53
179.593	10.24
179.832	2.05
180.071	12.29
180.309	-18.43
180.548	-6.14
180.786	-6.14
181.025	77.82
181.263	86.01
181.502	32.77
181.74	45.06
181.979	24.58
182.217	67.58
182.456	157.69
182.694	75.77
182.932	106.49
183.17	59.39
183.409	65.53
183.647	65.53
183.885	69.63
184.123	49.15
184.361	53.25
184.6	102.4
184.838	51.2
185.076	67.58
185.314	-8.19
185.552	65.53
185.79	104.45
186.028	65.53
186.266	114.69
186.503	49.15
186.741	69.63
186.979	65.53
187.217	59.39
187.455	118.78
187.693	40.96
187.93	118.78
188.168	73.73
188.406	94.21
188.643	83.97
188.881	57.34
189.119	151.55
189.356	81.92
189.594	59.39
189.831	106.49
190.069	59.39
190.306	75.77
190.543	139.26
190.781	55.3
191.018	32.77
191.256	122.88
191.493	90.11
191.73	6.14
191.967	79.87
192.205	88.06
192.442	69.63
192.679	73.73
192.916	75.77
193.153	126.97
193.39	79.87
193.628	126.97
193.865	110.59
194.102	34.82
194.339	108.54
194.576	104.45
194.813	47.1
195.049	59.39
195.286	108.54
195.523	4.1
195.76	98.3
195.997	153.6
196.234	75.77
196.47	49.15
196.707	118.78
196.944	63.49
197.18	57.34
197.417	73.73
197.654	83.97
197.89	69.63
198.127	131.07
198.363	102.4
198.6	57.34
198.836	139.26
199.073	126.97
199.309	81.92
199.546	4.1
199.782	57.34
200.018	98.3
200.255	94.21
200.491	32.77
200.727	47.1
200.963	174.08
201.199	131.07
201.436	51.2
201.672	73.73
201.908	49.15
202.144	77.82
202.38	75.77
202.616	49.15
202.852	77.82
203.088	53.25
203.324	135.17
203.56	114.69
203.796	83.97
204.032	45.06
204.268	71.68
204.503	75.77
204.739	45.06
204.975	92.16
205.211	98.3
205.446	90.11
205.682	114.69
205.918	122.88
206.153	124.93
206.389	-8.19
206.625	38.91
206.86	59.39
207.096	75.77
207.331	49.15
207.567	86.01
207.802	96.25
208.037	90.11
208.273	86.01
208.508	16.38
208.744	61.44
208.979	61.44
209.214	51.2
209.449	49.15
209.685	45.06
209.92	40.96
210.155	75.77
210.39	147.45
210.625	53.25
210.86	145.41
211.095	38.91
211.33	24.58
211.565	73.73
211.8	16.38
212.035	24.58
212.27	57.34
212.505	176.13
212.74	55.3
212.975	96.25
213.21	106.49
213.444	61.44
213.679	81.92
213.914	18.43
214.149	18.43
214.383	67.58
214.618	59.39
214.853	16.38
215.087	65.53
215.322	77.82
215.556	40.96
215.791	65.53
216.025	30.72
216.26	90.11
216.494	59.39
216.729	57.34
216.963	92.16
217.197	86.01
217.432	114.69
217.666	-28.67
217.9	131.07
218.135	81.92
218.369	149.5
218.603	75.77
218.837	114.69
219.071	43.01
219.306	67.58
219.54	81.92
219.774	98.3
220.008	112.64
220.242	96.25
220.476	36.86
220.71	79.87
220.944	22.53
221.178	61.44
221.411	77.82
221.645	16.38
221.879	83.97
222.113	26.62
222.347	16.38
222.58	81.92
222.814	106.49
223.048	98.3
223.281	73.73
223.515	126.97
223.749	57.34
223.982	83.97
224.216	26.62
224.449	57.34
224.683	69.63
224.916	92.16
225.15	141.31
225.383	67.58
225.617	116.73
225.85	106.49
226.083	32.77
226.317	47.1
226.55	-4.1
226.783	49.15
227.016	96.25
227.25	45.06
227.483	49.15
227.716	67.58
227.949	20.48
228.182	45.06
228.415	73.73
228.648	12.29
228.881	79.87
229.114	12.29
229.347	59.39
229.58	69.63
229.813	81.92
230.046	141.31
230.279	88.06
230.512	65.53
230.745	124.93
230.977	65.53
231.21	155.65
231.443	104.45
231.675	53.25
231.908	73.73
232.141	61.44
232.373	43.01
232.606	57.34
232.839	92.16
233.071	92.16
233.304	77.82
233.536	98.3
233.769	34.82
234.001	122.88
234.233	73.73
234.466	135.17
234.698	81.92
234.93	133.12
235.163	114.69
235.395	100.35
235.627	59.39
235.86	129.02
236.092	81.92
236.324	73.73
236.556	135.17
236.788	90.11
237.02	143.36
237.252	73.73
237.484	159.74
237.716	147.45
237.948	131.07
238.18	45.06
238.412	122.88
238.644	110.59
238.876	98.3
239.108	-12.29
239.34	24.58
239.571	32.77
239.803	104.45
240.035	-12.29
240.267	102.4
240.498	67.58
240.73	100.35
240.962	51.2
241.193	65.53
241.425	77.82
241.656	57.34
241.888	57.34
242.119	75.77
242.351	116.73
242.582	151.55
242.814	90.11
243.045	38.91
243.277	73.73
243.508	135.17
243.739	81.92
243.971	98.3
244.202	90.11
244.433	40.96
244.664	65.53
244.896	65.53
245.127	94.21
245.358	151.55
245.589	67.58
245.82	90.11
246.051	67.58
246.282	59.39
246.513	94.21
246.744	67.58
246.975	110.59
247.206	106.49
247.437	100.35
247.668	135.17
247.899	-14.34
248.129	100.35
248.36	8.19
248.591	86.01
248.822	32.77
249.052	86.01
249.283	59.39
249.514	69.63
249.744	94.21
249.975	122.88
250.206	90.11
250.436	57.34
250.667	90.11
250.897	49.15
251.128	81.92
251.358	67.58
251.589	98.3
251.819	47.1
252.049	24.58
252.28	83.97
252.51	57.34
252.74	83.97
252.971	83.97
253.201	98.3
253.431	67.58
253.661	36.86
253.891	114.69
254.121	86.01
254.352	102.4
254.582	65.53
254.812	24.58
255.042	112.64
255.272	81.92
255.502	24.58
255.732	114.69
255.962	133.12
256.192	92.16
256.421	81.92
256.651	77.82
256.881	32.77
257.111	139.26
257.341	81.92
257.57	18.43
257.8	-24.58
258.03	24.58
258.259	30.72
258.489	135.17
258.719	100.35
258.948	108.54
259.178	126.97
259.407	116.73
259.637	79.87
259.866	69.63
260.096	155.65
260.325	106.49
260.555	102.4
260.784	90.11
261.013	124.93
261.243	90.11
261.472	69.63
261.701	116.73
261.931	71.68
262.16	81.92
262.389	135.17
262.618	51.2
262.847	153.6
263.076	53.25
263.305	124.93
263.535	77.82
263.764	98.3
263.993	49.15
264.222	24.58
264.451	73.73
264.679	69.63
264.908	-22.53
265.137	131.07
265.366	81.92
265.595	34.82
265.824	90.11
266.053	106.49
266.281	126.97
266.51	59.39
266.739	12.29
266.967	120.83
267.196	86.01
267.425	69.63
267.653	40.96
267.882	51.2
268.11	12.29
268.339	40.96
268.567	108.54
268.796	53.25
269.024	100.35
269.253	100.35
269.481	77.82
269.709	96.25
269.938	110.59
270.166	131.07
270.394	83.97
270.623	92.16
270.851	98.3
271.079	57.34
271.307	110.59
271.535	131.07
271.764	71.68
271.992	106.49
272.22	26.62
272.448	106.49
272.676	118.78
272.904	122.88
273.132	65.53
273.36	106.49
273.588	77.82
273.816	112.64
274.043	104.45
274.271	49.15
274.499	61.44
274.727	71.68
274.955	71.68
275.182	106.49
275.41	67.58
275.638	86.01
275.866	45.06
276.093	57.34
276.321	104.45
276.548	57.34
276.776	24.58
277.003	81.92
277.231	57.34
277.458	151.55
277.686	143.36
277.913	110.59
278.141	20.48
278.368	90.11
278.595	61.44
278.823	32.77
279.05	161.79
279.277	122.88
279.505	28.67
279.732	182.27
279.959	122.88
280.186	139.26
280.413	116.73
280.641	141.31
280.868	94.21
281.095	26.62
281.322	114.69
281.549	141.31
281.776	122.88
282.003	30.72
282.23	104.45
282.457	38.91
282.683	65.53
282.91	83.97
283.137	75.77
283.364	86.01
283.591	65.53
283.818	8.19
284.044	53.25
284.271	98.3
284.498	75.77
284.724	98.3
284.951	81.92
285.178	81.92
285.404	98.3
285.631	49.15
285.857	-22.53
286.084	94.21
286.31	139.26
286.537	116.73
286.763	34.82
286.99	-32.77
287.216	81.92
287.442	118.78
287.669	88.06
287.895	90.11
288.121	51.2
288.347	151.55
288.574	86.01
288.8	83.97
289.026	157.69
289.252	98.3
289.478	90.11
289.704	90.11
289.931	49.15
290.157	86.01
290.383	90.11
290.609	141.31
290.835	139.26
291.06	77.82
291.286	77.82
291.512	137.21
291.738	81.92
291.964	149.5
292.19	-14.34
292.416	51.2
292.641	79.87
292.867	63.49
293.093	147.45
293.319	100.35
293.544	90.11
293.77	86.01
293.995	96.25
294.221	92.16
294.447	53.25
294.672	86.01
294.898	59.39
295.123	96.25
295.349	112.64
295.574	124.93
295.799	49.15
296.025	36.86
296.25	75.77
296.476	-12.29
296.701	124.93
296.926	88.06
297.151	124.93
297.377	40.96
297.602	51.2
297.827	106.49
298.052	81.92
298.277	92.16
298.502	69.63
298.727	81.92
298.953	106.49
299.178	120.83
299.403	88.06
299.628	151.55
299.852	114.69
300.077	106.49
300.302	24.58
300.527	75.77
300.752	215.04
300.977	194.56
301.202	98.3
301.426	92.16
301.651	98.3
301.876	73.73
302.101	49.15
302.325	94.21
302.55	104.45
302.775	24.58
302.999	67.58
303.224	69.63
303.448	79.87
303.673	69.63
303.897	45.06
304.122	73.73
304.346	79.87
304.571	69.63
304.795	169.98
305.019	188.41
305.244	4.1
305.468	151.55
305.692	49.15
305.917	110.59
306.141	49.15
306.365	114.69
306.589	65.53
306.813	126.97
307.038	12.29
307.262	155.65
307.486	106.49
307.71	104.45
307.934	77.82
308.158	106.49
308.382	75.77
308.606	114.69
308.83	149.5
309.054	36.86
309.278	57.34
309.502	90.11
309.725	67.58
309.949	139.26
310.173	108.54
310.397	73.73
310.62	73.73
310.844	59.39
311.068	139.26
311.292	116.73
311.515	73.73
311.739	94.21
311.962	53.25
312.186	98.3
312.41	61.44
312.633	51.2
312.857	90.11
313.08	86.01
313.303	28.67
313.527	83.97
313.75	122.88
313.974	106.49
314.197	118.78
314.42	55.3
314.644	75.77
314.867	73.73
315.09	147.45
315.313	59.39
315.536	114.69
315.76	65.53
315.983	49.15
316.206	167.93
316.429	86.01
316.652	77.82
316.875	43.01
317.098	126.97
317.321	108.54
317.544	43.01
317.767	45.06
317.99	131.07
318.213	61.44
318.436	122.88
318.658	36.86
318.881	104.45
319.104	86.01
319.327	45.06
319.55	45.06
319.772	192.51
319.995	98.3
320.218	137.21
320.44	92.16
320.663	77.82
320.885	122.88
321.108	110.59
321.331	155.65
321.553	157.69
321.776	53.25
321.998	75.77
322.22	69.63
322.443	159.74
322.665	67.58
322.888	75.77
323.11	102.4
323.332	51.2
323.555	53.25
323.777	59.39
323.999	86.01
324.221	53.25
324.443	104.45
324.666	61.44
324.888	83.97
325.11	135.17
325.332	110.59
325.554	122.88
325.776	28.67
325.998	102.4
326.22	98.3
326.442	40.96
326.664	45.06
326.886	135.17
327.108	18.43
327.33	92.16
327.551	61.44
327.773	26.62
327.995	98.3
328.217	92.16
328.439	102.4
328.66	92.16
328.882	55.3
329.104	65.53
329.325	73.73
329.547	65.53
329.769	12.29
329.99	110.59
330.212	98.3
330.433	43.01
330.655	116.73
330.876	180.22
331.098	122.88
331.319	65.53
331.54	135.17
331.762	114.69
331.983	81.92
332.204	40.96
332.426	65.53
332.647	139.26
332.868	98.3
333.089	83.97
333.311	104.45
333.532	98.3
333.753	86.01
333.974	90.11
334.195	118.78
334.416	92.16
334.637	57.34
334.858	32.77
335.079	94.21
335.3	137.21
335.521	79.87
335.742	163.84
335.963	114.69
336.184	118.78
336.405	141.31
336.626	73.73
336.846	112.64
337.067	49.15
337.288	67.58
337.509	98.3
337.729	73.73
337.95	102.4
338.171	94.21
338.391	49.15
338.612	126.97
338.833	45.06
339.053	133.12
339.274	122.88
339.494	57.34
339.715	135.17
339.935	81.92
340.156	75.77
340.376	81.92
340.596	147.45
340.817	94.21
341.037	73.73
341.257	43.01
341.478	79.87
341.698	143.36
341.918	106.49
342.138	92.16
342.359	131.07
342.579	153.6
342.799	124.93
343.019	57.34
343.239	49.15
343.459	100.35
343.679	153.6
343.899	26.62
344.119	108.54
344.339	57.34
344.559	67.58
344.779	8.19
344.999	61.44
345.219	75.77
345.439	159.74
345.658	176.13
345.878	34.82
346.098	137.21
346.318	69.63
346.537	0
346.757	135.17
346.977	135.17
347.196	73.73
347.416	67.58
347.636	98.3
347.855	141.31
348.075	120.83
348.294	92.16
348.514	57.34
348.733	153.6
348.953	40.96
349.172	86.01
349.392	114.69
349.611	65.53
349.83	90.11
350.05	157.69
350.269	24.58
350.488	100.35
350.707	135.17
350.927	71.68
351.146	106.49
351.365	36.86
351.584	92.16
351.803	92.16
352.023	155.65
352.242	53.25
352.461	94.21
352.68	149.5
352.899	100.35
353.118	135.17
353.337	51.2
353.556	98.3
353.775	139.26
353.993	40.96
354.212	124.93
354.431	139.26
354.65	143.36
354.869	98.3
355.088	71.68
355.306	133.12
355.525	57.34
355.744	53.25
355.962	112.64
356.181	151.55
356.4	90.11
356.618	65.53
356.837	118.78
357.055	77.82
357.274	77.82
357.492	69.63
357.711	131.07
357.929	114.69
358.148	149.5
358.366	137.21
358.585	122.88
358.803	114.69
359.021	135.17
359.24	137.21
359.458	49.15
359.676	135.17
359.894	75.77
360.113	122.88
360.331	122.88
360.549	122.88
360.767	61.44
360.985	112.64
361.203	139.26
361.421	131.07
361.639	75.77
361.857	100.35
362.075	36.86
362.293	151.55
362.511	24.58
362.729	124.93
362.947	61.44
363.165	75.77
363.383	116.73
363.601	45.06
363.819	118.78
364.036	122.88
364.254	81.92
364.472	200.7
364.689	141.31
364.907	145.41
365.125	155.65
365.342	180.22
365.56	196.61
365.778	86.01
365.995	75.77
366.213	65.53
366.43	61.44
366.648	73.73
366.865	131.07
367.083	100.35
367.3	104.45
367.517	155.65
367.735	106.49
367.952	124.93
368.17	151.55
368.387	122.88
368.604	102.4
368.821	69.63
369.039	147.45
369.256	61.44
369.473	149.5
369.69	118.78
369.907	118.78
370.124	114.69
370.341	57.34
370.558	114.69
370.776	98.3
370.993	149.5
371.21	86.01
371.426	77.82
371.643	106.49
371.86	120.83
372.077	81.92
372.294	57.34
372.511	106.49
372.728	126.97
372.945	79.87
373.161	67.58
373.378	165.89
373.595	149.5
373.811	192.51
374.028	155.65
374.245	92.16
374.461	65.53
374.678	110.59
374.895	112.64
375.111	180.22
375.328	73.73
375.544	67.58
375.761	157.69
375.977	172.03
376.194	81.92
376.41	219.13
376.626	73.73
376.843	131.07
377.059	135.17
377.275	110.59
377.492	155.65
377.708	163.84
377.924	110.59
378.14	114.69
378.357	126.97
378.573	124.93
378.789	180.22
379.005	155.65
379.221	110.59
379.437	139.26
379.653	96.25
379.869	233.47
380.085	196.61
380.301	104.45
380.517	155.65
380.733	163.84
380.949	149.5
381.165	135.17
381.381	139.26
381.597	67.58
381.813	96.25
382.028	124.93
382.244	122.88
382.46	198.65
382.676	141.31
382.891	174.08
383.107	161.79
383.323	182.27
383.538	110.59
383.754	212.99
383.969	143.36
384.185	167.93
384.4	192.51
384.616	176.13
384.831	188.41
385.047	141.31
385.262	139.26
385.478	172.03
385.693	196.61
385.909	192.51
386.124	221.18
386.339	176.13
386.554	147.45
386.77	147.45
386.985	190.46
387.2	190.46
387.415	247.8
387.631	188.41
387.846	223.23
388.061	155.65
388.276	321.53
388.491	143.36
388.706	188.41
388.921	270.33
389.136	221.18
389.351	262.14
389.566	210.94
389.781	135.17
389.996	303.1
390.211	169.98
390.426	229.37
390.641	270.33
390.855	204.8
391.07	196.61
391.285	223.23
391.5	278.52
391.714	251.9
391.929	249.85
392.144	229.37
392.358	184.32
392.573	278.52
392.788	249.85
393.002	196.61
393.217	342.01
393.431	241.66
393.646	311.29
393.86	305.15
394.075	266.24
394.289	344.06
394.504	311.29
394.718	374.78
394.933	299
395.147	329.72
395.361	397.31
395.576	307.2
395.79	385.02
396.004	331.77
396.218	346.11
396.432	376.83
396.647	395.26
396.861	321.53
397.075	344.06
397.289	372.73
397.503	342.01
397.717	419.83
397.931	350.2
398.145	499.7
398.359	464.89
398.573	448.51
398.787	438.27
399.001	477.18
399.215	440.31
399.429	425.98
399.643	557.05
399.857	518.14
400.07	509.94
400.284	577.53
400.498	540.66
400.712	552.95
400.925	471.03
401.139	493.56
401.353	511.99
401.566	638.97
401.78	522.23
401.994	708.6
402.207	679.93
402.421	675.83
402.634	681.97
402.848	733.17
403.061	638.97
403.275	692.21
403.488	712.69
403.702	763.89
403.915	696.31
404.128	704.5
404.342	757.75
404.555	794.61
404.768	811
404.982	862.19
405.195	874.48
405.408	868.34
405.621	763.89
405.835	911.35
406.048	886.77
406.261	919.54
406.474	874.48
406.687	886.77
406.9	1087.47
407.113	1023.98
407.326	1009.65
407.539	966.64
407.752	1048.56
407.965	1114.1
408.178	1163.25
408.391	1146.86
408.604	1146.86
408.817	1140.72
409.029	1222.64
409.242	1165.29
409.455	1214.45
409.668	1253.36
409.881	1355.76
410.093	1251.31
410.306	1335.28
410.519	1339.37
410.731	1425.39
410.944	1359.85
411.157	1322.99
411.369	1466.35
411.582	1445.87
411.794	1507.31
412.007	1400.81
412.219	1665
412.432	1546.22
412.644	1564.65
412.857	1595.37
413.069	1716.2
413.281	1710.05
413.494	1679.33
413.706	1728.49
413.918	1585.13
414.131	1796.07
414.343	1720.29
414.555	1589.22
414.767	1736.68
414.979	1884.13
415.192	1896.42
415.404	1902.56
415.616	1871.84
415.828	1861.6
416.04	1957.86
416.252	1861.6
416.464	1830.88
416.676	1882.08
416.888	1892.32
417.1	1984.48
417.312	1935.33
417.524	1920.99
417.736	1945.57
417.948	2117.6
418.159	2101.22
418.371	2056.16
418.583	2013.15
418.795	2058.21
419.007	2199.52
419.218	2125.79
419.43	2131.94
419.642	2193.37
419.853	2220
420.065	2205.66
420.276	2228.19
420.488	2349.02
420.7	2297.82
420.911	2314.2
421.123	2363.36
421.334	2224.09
421.546	2310.11
421.757	2357.21
421.969	2228.19
422.18	2371.55
422.391	2349.02
422.603	2410.46
422.814	2389.98
423.025	2623.45
423.237	2441.18
423.448	2533.34
423.659	2664.41
423.87	2656.22
424.082	2564.06
424.293	2514.91
424.504	2598.87
424.715	2521.05
424.926	2648.02
425.137	2408.41
425.348	2531.29
425.559	2664.41
425.77	2666.46
425.981	2600.92
426.192	2809.81
426.403	2787.29
426.614	2729.94
426.825	2707.41
427.036	2699.22
427.247	2424.8
427.458	2703.32
427.668	2664.41
427.879	2723.8
428.09	2779.09
428.301	2785.24
428.511	2762.71
428.722	2682.84
428.933	2797.53
429.143	2801.62
429.354	2777.05
429.565	2899.92
429.775	2754.52
429.986	2863.06
430.196	2789.33
430.407	2793.43
430.617	2580.44
430.828	2688.98
431.038	2772.95
431.249	2672.6
431.459	2703.32
431.669	2750.42
431.88	2715.61
432.09	2662.36
432.3	2852.82
432.511	2781.14
432.721	2793.43
432.931	2871.25
433.141	2557.91
433.351	2711.51
433.562	2822.1
433.772	2969.55
433.982	2865.11
434.192	2781.14
434.402	2711.51
434.612	2697.17
434.822	2818.01
435.032	2760.66
435.242	2707.41
435.452	2930.64
435.662	2879.44
435.872	2875.35
436.082	2674.65
436.292	2564.06
436.502	2547.67
436.711	2867.16
436.921	2635.74
437.131	2713.56
437.341	2748.37
437.551	2951.12
437.76	2785.24
437.97	2807.77
438.18	2785.24
438.389	2727.89
438.599	2580.44
438.808	2828.24
439.018	2697.17
439.228	2682.84
439.437	2785.24
439.647	2688.98
439.856	2772.95
440.066	2734.04
440.275	2707.41
440.484	2731.99
440.694	2619.35
440.903	2822.1
441.113	2662.36
441.322	2705.37
441.531	2674.65
441.741	2795.48
441.95	2691.03
442.159	2584.54
442.368	2678.74
442.577	2645.98
442.787	2572.25
442.996	2717.65
443.205	2779.09
443.414	2697.17
443.623	2666.46
443.832	2639.83
444.041	2670.55
444.25	2654.17
444.459	2549.72
444.668	2559.96
444.877	2514.91
445.086	2541.53
445.295	2582.49
445.504	2600.92
445.713	2596.82
445.922	2674.65
446.13	2545.63
446.339	2490.33
446.548	2500.57
446.757	2514.91
446.965	2564.06
447.174	2639.83
447.383	2631.64
447.591	2551.77
447.8	2324.44
448.009	2432.99
448.217	2482.14
448.426	2490.33
448.634	2457.56
448.843	2516.95
449.051	2379.74
449.26	2443.23
449.468	2484.19
449.677	2580.44
449.885	2416.6
450.093	2426.84
450.302	2293.73
450.51	2654.17
450.719	2375.64
450.927	2584.54
451.135	2396.12
451.343	2471.9
451.552	2451.42
451.76	2498.52
451.968	2467.8
452.176	2549.72
452.384	2531.29
452.592	2467.8
452.8	2400.22
453.009	2473.95
453.217	2449.37
453.425	2510.81
453.633	2379.74
453.841	2584.54
454.049	2482.14
454.257	2482.14
454.464	2451.42
454.672	2432.99
454.88	2613.21
455.088	2424.8
455.296	2340.83
455.504	2416.6
455.711	2424.8
455.919	2414.56
456.127	2437.08
456.335	2531.29
456.542	2473.95
456.75	2519
456.958	2432.99
