Data from light_USB4E013581_00003.txt Node
Date: Wed May 08 15:04:40 EDT 2019
User: dh1006
Spectrometer: USB4E01358
Autoset integration time: false
Trigger mode: 4
Integration Time (sec): 2.925000E-2
Scans to average: 1
Electric dark correction enabled: true
Nonlinearity correction enabled: false
Boxcar width: 0
Stray light correction enabled: false
XAxis mode: Wavelengths
Stop averaging: false
Number of Pixels in Spectrum: 3648
>>>>>Begin Spectral Data<<<<<
176.727	-24.89
176.966	-24.89
177.205	-24.89
177.444	-10.55
177.683	-59.71
177.922	91.84
178.161	30.4
178.4	-10.55
178.638	42.69
178.877	7.88
179.116	-39.23
179.355	24.26
179.593	-2.36
179.832	22.21
180.071	52.93
180.309	-102.71
180.548	16.07
180.786	-4.41
181.025	106.18
181.263	65.22
181.502	145.09
181.74	34.5
181.979	-18.75
182.217	-10.55
182.456	188.1
182.694	120.52
182.932	91.84
183.17	79.56
183.409	30.4
183.647	1.73
183.885	63.17
184.123	91.84
184.361	104.13
184.6	22.21
184.838	50.88
185.076	24.26
185.314	128.71
185.552	71.36
185.79	97.99
186.028	30.4
186.266	54.98
186.503	87.75
186.741	87.75
186.979	81.6
187.217	71.36
187.455	116.42
187.693	38.6
187.93	75.46
188.168	87.75
188.406	32.45
188.643	32.45
188.881	108.23
189.119	63.17
189.356	59.08
189.594	-16.7
189.831	48.84
190.069	118.47
190.306	87.75
190.543	48.84
190.781	57.03
191.018	95.94
191.256	73.41
191.493	36.55
191.73	100.04
191.967	71.36
192.205	81.6
192.442	85.7
192.679	75.46
192.916	63.17
193.153	153.28
193.39	52.93
193.628	120.52
193.865	128.71
194.102	38.6
194.339	87.75
194.576	106.18
194.813	120.52
195.049	22.21
195.286	38.6
195.523	87.75
195.76	108.23
195.997	69.32
196.234	110.28
196.47	128.71
196.707	46.79
196.944	40.64
197.18	134.85
197.417	83.65
197.654	102.08
197.89	54.98
198.127	120.52
198.363	61.12
198.6	128.71
198.836	63.17
199.073	87.75
199.309	112.32
199.546	79.56
199.782	87.75
200.018	124.61
200.255	-4.41
200.491	163.52
200.727	22.21
200.963	54.98
201.199	48.84
201.436	59.08
201.672	-35.13
201.908	138.95
202.144	79.56
202.38	89.8
202.616	104.13
202.852	85.7
203.088	87.75
203.324	75.46
203.56	63.17
203.796	116.42
204.032	124.61
204.268	151.23
204.503	91.84
204.739	112.32
204.975	112.32
205.211	46.79
205.446	36.55
205.682	57.03
205.918	122.56
206.153	153.28
206.389	112.32
206.625	87.75
206.86	-6.46
207.096	67.27
207.331	87.75
207.567	42.69
207.802	89.8
208.037	30.4
208.273	114.37
208.508	67.27
208.744	61.12
208.979	32.45
209.214	63.17
209.449	130.75
209.685	18.12
209.92	48.84
210.155	112.32
210.39	32.45
210.625	-10.55
210.86	91.84
211.095	120.52
211.33	161.47
211.565	30.4
211.8	26.31
212.035	104.13
212.27	75.46
212.505	77.51
212.74	130.75
212.975	83.65
213.21	100.04
213.444	61.12
213.679	112.32
213.914	5.83
214.149	120.52
214.383	128.71
214.618	69.32
214.853	120.52
215.087	87.75
215.322	85.7
215.556	87.75
215.791	89.8
216.025	22.21
216.26	106.18
216.494	106.18
216.729	38.6
216.963	69.32
217.197	153.28
217.432	20.16
217.666	14.02
217.9	77.51
218.135	134.85
218.369	97.99
218.603	54.98
218.837	57.03
219.071	79.56
219.306	97.99
219.54	81.6
219.774	104.13
220.008	95.94
220.242	1.73
220.476	116.42
220.71	124.61
220.944	59.08
221.178	120.52
221.411	120.52
221.645	114.37
221.879	59.08
222.113	87.75
222.347	79.56
222.58	71.36
222.814	54.98
223.048	122.56
223.281	57.03
223.515	112.32
223.749	114.37
223.982	122.56
224.216	67.27
224.449	104.13
224.683	5.83
224.916	100.04
225.15	59.08
225.383	71.36
225.617	30.4
225.85	89.8
226.083	54.98
226.317	48.84
226.55	93.89
226.783	73.41
227.016	89.8
227.25	104.13
227.483	71.36
227.716	120.52
227.949	83.65
228.182	169.67
228.415	87.75
228.648	9.92
228.881	106.18
229.114	186.05
229.347	71.36
229.58	69.32
229.813	18.12
230.046	118.47
230.279	89.8
230.512	-0.32
230.745	216.77
230.977	140.99
231.21	124.61
231.443	108.23
231.675	-10.55
231.908	14.02
232.141	102.08
232.373	67.27
232.606	83.65
232.839	71.36
233.071	89.8
233.304	100.04
233.536	106.18
233.769	91.84
234.001	108.23
234.233	32.45
234.466	54.98
234.698	79.56
234.93	46.79
235.163	179.91
235.395	14.02
235.627	95.94
235.86	67.27
236.092	134.85
236.324	40.64
236.556	132.8
236.788	120.52
237.02	24.26
237.252	83.65
237.484	171.71
237.716	-2.36
237.948	91.84
238.18	108.23
238.412	122.56
238.644	81.6
238.876	54.98
239.108	38.6
239.34	143.04
239.571	59.08
239.803	91.84
240.035	34.5
240.267	190.15
240.498	106.18
240.73	128.71
240.962	57.03
241.193	95.94
241.425	81.6
241.656	126.66
241.888	116.42
242.119	34.5
242.351	30.4
242.582	67.27
242.814	-12.6
243.045	5.83
243.277	-2.36
243.508	73.41
243.739	26.31
243.971	93.89
244.202	89.8
244.433	85.7
244.664	75.46
244.896	54.98
245.127	110.28
245.358	104.13
245.589	71.36
245.82	87.75
246.051	87.75
246.282	95.94
246.513	50.88
246.744	73.41
246.975	65.22
247.206	153.28
247.437	30.4
247.668	79.56
247.899	104.13
248.129	130.75
248.36	91.84
248.591	79.56
248.822	54.98
249.052	63.17
249.283	102.08
249.514	102.08
249.744	104.13
249.975	73.41
250.206	63.17
250.436	110.28
250.667	95.94
250.897	95.94
251.128	42.69
251.358	87.75
251.589	79.56
251.819	104.13
252.049	122.56
252.28	89.8
252.51	112.32
252.74	46.79
252.971	87.75
253.201	79.56
253.431	73.41
253.661	81.6
253.891	95.94
254.121	120.52
254.352	79.56
254.582	128.71
254.812	67.27
255.042	89.8
255.272	112.32
255.502	63.17
255.732	75.46
255.962	91.84
256.192	138.95
256.421	85.7
256.651	69.32
256.881	100.04
257.111	120.52
257.341	104.13
257.57	79.56
257.8	81.6
258.03	18.12
258.259	110.28
258.489	136.9
258.719	95.94
258.948	40.64
259.178	124.61
259.407	120.52
259.637	143.04
259.866	71.36
260.096	34.5
260.325	54.98
260.555	104.13
260.784	63.17
261.013	95.94
261.243	-0.32
261.472	54.98
261.701	65.22
261.931	50.88
262.16	102.08
262.389	38.6
262.618	104.13
262.847	102.08
263.076	75.46
263.305	71.36
263.535	120.52
263.764	7.88
263.993	79.56
264.222	36.55
264.451	120.52
264.679	57.03
264.908	75.46
265.137	63.17
265.366	120.52
265.595	128.71
265.824	71.36
266.053	67.27
266.281	59.08
266.51	59.08
266.739	145.09
266.967	151.23
267.196	97.99
267.425	73.41
267.653	95.94
267.882	147.14
268.11	54.98
268.339	67.27
268.567	46.79
268.796	118.47
269.024	97.99
269.253	112.32
269.481	108.23
269.709	65.22
269.938	112.32
270.166	106.18
270.394	100.04
270.623	104.13
270.851	79.56
271.079	147.14
271.307	130.75
271.535	-2.36
271.764	171.71
271.992	161.47
272.22	114.37
272.448	75.46
272.676	145.09
272.904	136.9
273.132	59.08
273.36	130.75
273.588	100.04
273.816	87.75
274.043	52.93
274.271	95.94
274.499	95.94
274.727	112.32
274.955	54.98
275.182	128.71
275.41	54.98
275.638	77.51
275.866	46.79
276.093	173.76
276.321	145.09
276.548	140.99
276.776	108.23
277.003	124.61
277.231	145.09
277.458	63.17
277.686	89.8
277.913	112.32
278.141	175.81
278.368	97.99
278.595	95.94
278.823	87.75
279.05	159.43
279.277	28.36
279.505	57.03
279.732	87.75
279.959	71.36
280.186	112.32
280.413	102.08
280.641	120.52
280.868	52.93
281.095	79.56
281.322	77.51
281.549	91.84
281.776	112.32
282.003	122.56
282.23	54.98
282.457	67.27
282.683	161.47
282.91	130.75
283.137	110.28
283.364	93.89
283.591	-18.75
283.818	73.41
284.044	42.69
284.271	57.03
284.498	83.65
284.724	69.32
284.951	77.51
285.178	124.61
285.404	83.65
285.631	48.84
285.857	112.32
286.084	40.64
286.31	136.9
286.537	114.37
286.763	57.03
286.99	134.85
287.216	83.65
287.442	26.31
287.669	153.28
287.895	104.13
288.121	26.31
288.347	145.09
288.574	163.52
288.8	149.19
289.026	95.94
289.252	95.94
289.478	181.95
289.704	65.22
289.931	69.32
290.157	91.84
290.383	26.31
290.609	106.18
290.835	122.56
291.06	79.56
291.286	110.28
291.512	59.08
291.738	108.23
291.964	67.27
292.19	75.46
292.416	71.36
292.641	95.94
292.867	149.19
293.093	128.71
293.319	153.28
293.544	136.9
293.77	120.52
293.995	100.04
294.221	91.84
294.447	91.84
294.672	161.47
294.898	40.64
295.123	73.41
295.349	42.69
295.574	73.41
295.799	9.92
296.025	77.51
296.25	83.65
296.476	59.08
296.701	194.24
296.926	87.75
297.151	130.75
297.377	69.32
297.602	120.52
297.827	114.37
298.052	85.7
298.277	100.04
298.502	112.32
298.727	116.42
298.953	112.32
299.178	67.27
299.403	120.52
299.628	75.46
299.852	108.23
300.077	93.89
300.302	83.65
300.527	81.6
300.752	50.88
300.977	46.79
301.202	89.8
301.426	102.08
301.651	116.42
301.876	100.04
302.101	18.12
302.325	161.47
302.55	83.65
302.775	120.52
302.999	54.98
303.224	124.61
303.448	63.17
303.673	108.23
303.897	128.71
304.122	87.75
304.346	175.81
304.571	87.75
304.795	1.73
305.019	85.7
305.244	85.7
305.468	104.13
305.692	46.79
305.917	136.9
306.141	7.88
306.365	128.71
306.589	79.56
306.813	128.71
307.038	116.42
307.262	57.03
307.486	3.78
307.71	108.23
307.934	83.65
308.158	95.94
308.382	77.51
308.606	81.6
308.83	100.04
309.054	145.09
309.278	128.71
309.502	102.08
309.725	138.95
309.949	188.1
310.173	104.13
310.397	63.17
310.62	67.27
310.844	173.76
311.068	145.09
311.292	124.61
311.515	73.41
311.739	38.6
311.962	75.46
312.186	149.19
312.41	71.36
312.633	83.65
312.857	97.99
313.08	71.36
313.303	126.66
313.527	75.46
313.75	85.7
313.974	81.6
314.197	38.6
314.42	89.8
314.644	73.41
314.867	106.18
315.09	24.26
315.313	104.13
315.536	71.36
315.76	48.84
315.983	116.42
316.206	140.99
316.429	173.76
316.652	26.31
316.875	14.02
317.098	136.9
317.321	71.36
317.544	108.23
317.767	140.99
317.99	81.6
318.213	81.6
318.436	128.71
318.658	67.27
318.881	79.56
319.104	114.37
319.327	38.6
319.55	124.61
319.772	97.99
319.995	140.99
320.218	100.04
320.44	169.67
320.663	112.32
320.885	147.14
321.108	95.94
321.331	114.37
321.553	89.8
321.776	190.15
321.998	114.37
322.22	128.71
322.443	124.61
322.665	169.67
322.888	81.6
323.11	104.13
323.332	120.52
323.555	175.81
323.777	151.23
323.999	136.9
324.221	104.13
324.443	95.94
324.666	149.19
324.888	118.47
325.11	132.8
325.332	132.8
325.554	20.16
325.776	85.7
325.998	147.14
326.22	59.08
326.442	163.52
326.664	5.83
326.886	108.23
327.108	95.94
327.33	120.52
327.551	149.19
327.773	132.8
327.995	87.75
328.217	153.28
328.439	67.27
328.66	112.32
328.882	89.8
329.104	118.47
329.325	52.93
329.547	108.23
329.769	130.75
329.99	97.99
330.212	42.69
330.433	122.56
330.655	106.18
330.876	102.08
331.098	79.56
331.319	59.08
331.54	102.08
331.762	83.65
331.983	112.32
332.204	97.99
332.426	54.98
332.647	75.46
332.868	34.5
333.089	132.8
333.311	145.09
333.532	59.08
333.753	116.42
333.974	30.4
334.195	63.17
334.416	100.04
334.637	85.7
334.858	130.75
335.079	63.17
335.3	194.24
335.521	14.02
335.742	89.8
335.963	81.6
336.184	95.94
336.405	120.52
336.626	71.36
336.846	157.38
337.067	112.32
337.288	136.9
337.509	71.36
337.729	81.6
337.95	59.08
338.171	95.94
338.391	114.37
338.612	136.9
338.833	114.37
339.053	79.56
339.274	48.84
339.494	149.19
339.715	108.23
339.935	112.32
340.156	138.95
340.376	50.88
340.596	48.84
340.817	54.98
341.037	124.61
341.257	120.52
341.478	100.04
341.698	120.52
341.918	38.6
342.138	77.51
342.359	151.23
342.579	122.56
342.799	87.75
343.019	102.08
343.239	124.61
343.459	97.99
343.679	120.52
343.899	163.52
344.119	130.75
344.339	75.46
344.559	67.27
344.779	75.46
344.999	73.41
345.219	134.85
345.439	112.32
345.658	161.47
345.878	122.56
346.098	79.56
346.318	108.23
346.537	81.6
346.757	134.85
346.977	89.8
347.196	50.88
347.416	173.76
347.636	106.18
347.855	71.36
348.075	100.04
348.294	91.84
348.514	75.46
348.733	175.81
348.953	71.36
349.172	75.46
349.392	83.65
349.611	159.43
349.83	77.51
350.05	89.8
350.269	122.56
350.488	87.75
350.707	81.6
350.927	112.32
351.146	147.14
351.365	67.27
351.584	155.33
351.803	89.8
352.023	50.88
352.242	120.52
352.461	132.8
352.68	95.94
352.899	95.94
353.118	87.75
353.337	186.05
353.556	114.37
353.775	145.09
353.993	134.85
354.212	63.17
354.431	143.04
354.65	145.09
354.869	145.09
355.088	130.75
355.306	91.84
355.525	91.84
355.744	87.75
355.962	149.19
356.181	165.57
356.4	89.8
356.618	106.18
356.837	126.66
357.055	100.04
357.274	132.8
357.492	112.32
357.711	87.75
357.929	145.09
358.148	71.36
358.366	138.95
358.585	108.23
358.803	153.28
359.021	173.76
359.24	38.6
359.458	116.42
359.676	9.92
359.894	97.99
360.113	151.23
360.331	145.09
360.549	140.99
360.767	149.19
360.985	104.13
361.203	114.37
361.421	145.09
361.639	120.52
361.857	114.37
362.075	104.13
362.293	104.13
362.511	46.79
362.729	145.09
362.947	134.85
363.165	153.28
363.383	71.36
363.601	186.05
363.819	38.6
364.036	112.32
364.254	120.52
364.472	104.13
364.689	136.9
364.907	161.47
365.125	95.94
365.342	118.47
365.56	151.23
365.778	194.24
365.995	75.46
366.213	104.13
366.43	81.6
366.648	132.8
366.865	153.28
367.083	95.94
367.3	120.52
367.517	110.28
367.735	102.08
367.952	145.09
368.17	104.13
368.387	145.09
368.604	145.09
368.821	136.9
369.039	151.23
369.256	79.56
369.473	112.32
369.69	153.28
369.907	153.28
370.124	128.71
370.341	112.32
370.558	75.46
370.776	194.24
370.993	57.03
371.21	132.8
371.426	120.52
371.643	124.61
371.86	95.94
372.077	89.8
372.294	95.94
372.511	114.37
372.728	136.9
372.945	95.94
373.161	112.32
373.378	145.09
373.595	114.37
373.811	108.23
374.028	132.8
374.245	91.84
374.461	130.75
374.678	100.04
374.895	128.71
375.111	220.87
375.328	83.65
375.544	194.24
375.761	104.13
375.977	136.9
376.194	138.95
376.41	128.71
376.626	67.27
376.843	175.81
377.059	153.28
377.275	79.56
377.492	130.75
377.708	145.09
377.924	132.8
378.14	136.9
378.357	202.43
378.573	161.47
378.789	177.86
379.005	87.75
379.221	100.04
379.437	161.47
379.653	120.52
379.869	196.29
380.085	83.65
380.301	140.99
380.517	153.28
380.733	54.98
380.949	120.52
381.165	161.47
381.381	108.23
381.597	147.14
381.813	120.52
382.028	188.1
382.244	59.08
382.46	235.2
382.676	200.39
382.891	132.8
383.107	145.09
383.323	120.52
383.538	79.56
383.754	169.67
383.969	169.67
384.185	145.09
384.4	169.67
384.616	202.43
384.831	190.15
385.047	202.43
385.262	173.76
385.478	177.86
385.693	186.05
385.909	153.28
386.124	218.82
386.339	130.75
386.554	202.43
386.77	171.71
386.985	122.56
387.2	198.34
387.415	241.35
387.631	63.17
387.846	237.25
388.061	157.38
388.276	194.24
388.491	210.63
388.706	249.54
388.921	222.91
389.136	231.11
389.351	188.1
389.566	167.62
389.781	235.2
389.996	194.24
390.211	212.67
390.426	169.67
390.641	263.87
390.855	194.24
391.07	173.76
391.285	270.02
391.5	292.54
391.714	296.64
391.929	241.35
392.144	263.87
392.358	267.97
392.573	202.43
392.788	186.05
393.002	237.25
393.217	267.97
393.431	251.59
393.646	288.45
393.86	263.87
394.075	337.6
394.289	227.01
394.504	255.68
394.718	366.27
394.933	310.98
395.147	308.93
395.361	308.93
395.576	378.56
395.79	366.27
396.004	396.99
396.218	392.89
396.432	390.85
396.647	407.23
396.861	378.56
397.075	401.09
397.289	399.04
397.503	382.66
397.717	362.18
397.931	386.75
398.145	403.13
398.359	415.42
398.573	452.29
398.787	470.72
399.001	472.77
399.215	376.51
399.429	513.73
399.643	505.53
399.857	550.59
400.07	530.11
400.284	442.05
400.498	579.26
400.712	571.07
400.925	554.68
401.139	538.3
401.353	593.6
401.566	607.93
401.78	655.03
401.994	583.36
402.207	661.18
402.421	562.88
402.634	695.99
402.848	702.14
403.061	661.18
403.275	589.5
403.488	616.12
403.702	691.9
403.915	726.71
404.128	769.72
404.342	865.98
404.555	857.78
404.768	769.72
404.982	868.02
405.195	919.22
405.408	841.4
405.621	841.4
405.835	878.26
406.048	931.51
406.261	906.94
406.474	943.8
406.687	990.9
406.9	1093.3
407.113	890.55
407.326	1046.2
407.539	939.7
407.752	1111.73
407.965	1062.58
408.178	1103.54
408.391	1169.08
408.604	1148.6
408.817	1177.27
409.029	1189.55
409.242	1187.51
409.455	1185.46
409.668	1263.28
409.881	1261.23
410.093	1279.67
410.306	1382.06
410.519	1328.82
410.731	1382.06
410.944	1398.45
411.157	1427.12
411.369	1558.19
411.582	1455.79
411.794	1515.18
412.007	1502.89
412.219	1498.8
412.432	1521.33
412.644	1371.82
412.857	1537.71
413.069	1595.05
413.281	1513.13
413.494	1615.53
413.706	1760.94
413.918	1595.05
414.131	1824.43
414.343	1808.04
414.555	1865.38
414.767	1783.47
414.979	1791.66
415.192	1900.2
415.404	2021.03
415.616	1881.77
415.828	1881.77
416.04	1957.54
416.252	1875.62
416.464	1724.07
416.676	2000.55
416.888	1949.35
417.1	1980.07
417.312	2029.22
417.524	2168.48
417.736	2023.08
417.948	2105
418.159	2129.57
418.371	2021.03
418.583	2111.14
418.795	2182.82
419.007	2211.49
419.218	2100.9
419.43	2121.38
419.642	2326.18
419.853	2258.59
420.065	2215.59
420.276	2293.41
420.488	2268.83
420.7	2252.45
420.911	2283.17
421.123	2356.9
421.334	2383.52
421.546	2332.32
421.757	2539.17
421.969	2350.75
422.18	2408.1
422.391	2471.58
422.603	2457.25
422.814	2475.68
423.025	2483.87
423.237	2375.33
423.448	2473.63
423.659	2627.23
423.87	2578.08
424.082	2555.55
424.293	2610.85
424.504	2655.9
424.715	2422.43
424.926	2655.9
425.137	2559.65
425.348	2561.69
425.559	2598.56
425.77	2707.1
425.981	2533.02
426.192	2717.34
426.403	2872.99
426.614	2717.34
426.825	2692.76
427.036	2639.52
427.247	2502.3
427.458	2686.62
427.668	2594.46
427.879	2711.2
428.09	2545.31
428.301	2825.88
428.511	2719.39
428.722	2717.34
428.933	2801.31
429.143	2637.47
429.354	2721.44
429.565	2850.46
429.775	2803.35
429.986	2791.07
430.196	2879.13
430.407	2709.15
430.617	2639.52
430.828	2705.05
431.038	2856.6
431.249	2883.22
431.459	2711.2
431.669	2766.49
431.88	2672.28
432.09	2621.08
432.3	2879.13
432.511	2795.16
432.721	2731.68
432.931	2926.23
433.141	2606.75
433.351	2713.24
433.562	2803.35
433.772	2766.49
433.982	2891.42
434.192	2834.07
434.402	2774.68
434.612	2821.79
434.822	2932.38
435.032	2741.92
435.242	2797.21
435.452	2860.7
435.662	2688.67
435.872	2946.71
436.082	2856.6
436.292	2619.04
436.502	2791.07
436.711	2879.13
436.921	2670.24
437.131	2754.2
437.341	2721.44
437.551	2858.65
437.76	2938.52
437.97	2705.05
438.18	2782.87
438.389	2651.8
438.599	2602.65
438.808	2680.48
439.018	2803.35
439.228	2682.52
439.437	2645.66
439.647	2774.68
439.856	2750.11
440.066	2596.51
440.275	2561.69
440.484	2809.5
440.694	2625.18
440.903	2784.92
441.113	2627.23
441.322	2625.18
441.531	2723.48
441.741	2803.35
441.95	2741.92
442.159	2764.44
442.368	2598.56
442.577	2563.74
442.787	2696.86
442.996	2756.25
443.205	2660
443.414	2766.49
443.623	2684.57
443.832	2641.56
444.041	2627.23
444.25	2719.39
444.459	2471.58
444.668	2614.94
444.877	2504.35
445.086	2522.78
445.295	2614.94
445.504	2705.05
445.713	2522.78
445.922	2582.17
446.13	2625.18
446.339	2522.78
446.548	2463.39
446.757	2496.16
446.965	2516.64
447.174	2506.4
447.383	2440.86
447.591	2307.75
447.8	2311.84
448.009	2598.56
448.217	2530.97
448.426	2643.61
448.634	2447.01
448.843	2557.6
449.051	2389.66
449.26	2520.73
449.468	2586.27
449.677	2459.3
449.885	2530.97
450.093	2571.93
450.302	2430.62
450.51	2569.89
450.719	2391.71
450.927	2612.89
451.135	2561.69
451.343	2461.34
451.552	2467.49
451.76	2621.08
451.968	2377.38
452.176	2315.94
452.384	2545.31
452.592	2320.03
452.8	2627.23
453.009	2565.79
453.217	2565.79
453.425	2461.34
453.633	2391.71
453.841	2498.21
454.049	2373.28
454.257	2512.54
454.464	2348.71
454.672	2623.13
454.88	2516.64
455.088	2512.54
455.296	2492.06
455.504	2514.59
455.711	2317.99
455.919	2555.55
456.127	2447.01
456.335	2604.7
